time raw smootha velocity direction smoothv
44477 1321.00 1036.99 133 1 126.90 
44492 1263.00 1047.75 136 1 128.12 
44507 1013.00 1046.10 138 1 129.69 
44522 1104.00 1048.86 141 1 131.36 
44537 692.00 1031.86 143 1 133.28 
44552 972.00 1029.01 145 1 135.23 
44567 781.00 1017.20 146 1 137.18 
44582 904.00 1011.81 147 1 138.95 
44597 1185.00 1020.06 148 1 140.56 
44612 969.00 1017.63 149 1 142.05 
44626 899.00 1011.98 150 1 143.44 
44641 883.00 1005.84 151 1 144.75 
44656 1129.00 1011.70 152 1 146.00 
44671 1078.00 1014.86 153 1 147.20 
44686 1004.00 1014.34 154 1 148.36 
44701 1044.00 1015.75 155 1 149.49 
44716 897.00 1010.10 156 1 150.59 
44731 937.00 1006.62 157 1 151.67 
44746 705.00 992.26 157 1 152.74 
44761 1016.00 993.39 157 1 153.59 
44776 1129.00 999.84 157 1 154.27 
44791 799.00 990.28 157 1 154.82 
44806 999.00 990.69 157 1 155.25 
44821 864.00 984.66 157 1 155.60 
44836 1370.00 1003.01 158 1 155.88 
44851 1020.00 1003.82 159 1 156.31 
44866 863.00 997.11 159 1 156.84 
44881 1081.00 1001.11 159 1 157.28 
44896 942.00 998.29 159 1 157.62 
44911 950.00 995.99 159 1 157.90 
44926 972.00 994.85 159 1 158.12 
44941 707.00 981.14 159 1 158.29 
44956 1033.00 983.61 159 1 158.44 
44971 981.00 983.49 159 1 158.55 
44986 1193.00 993.47 159 1 158.64 
45001 973.00 992.49 159 1 158.71 
45016 1024.00 993.99 159 1 158.77 
45031 961.00 992.42 159 1 158.81 
45046 1040.00 994.69 159 1 158.85 
45061 888.00 989.61 159 1 158.88 
45076 946.00 987.53 159 1 158.91 
45091 858.00 981.36 159 1 158.92 
45106 1121.00 988.01 159 1 158.94 
45121 1108.00 993.72 159 1 158.95 
45136 1231.00 1005.02 160 1 158.96 
45151 1093.00 1009.21 161 1 159.17 
45166 854.00 1001.82 161 1 159.54 
45181 1095.00 1006.26 162 1 159.83 
45196 761.00 994.58 162 1 160.26 
45211 1238.00 1006.17 163 1 160.61 
45226 1185.00 1014.69 164 1 161.09 
45241 1230.00 1024.94 166 1 161.67 
45256 1103.00 1028.66 168 1 162.54 
45271 1016.00 1028.05 170 1 163.63 
45286 1071.00 1030.10 172 1 164.90 
45301 982.00 1027.81 174 1 166.32 
45316 777.00 1015.87 175 1 167.86 
45331 763.00 1003.82 176 1 169.29 
45346 855.00 996.74 176 1 170.63 
45361 973.00 995.61 176 1 171.70 
45376 831.00 987.77 176 1 172.56 
45391 1173.00 996.59 176 1 173.25 
45406 931.00 993.47 176 1 173.80 
45421 861.00 987.16 176 1 174.24 
45436 1001.00 987.82 176 1 174.59 
45451 903.00 983.78 176 1 174.87 
45466 983.00 983.74 176 1 175.10 
45481 897.00 979.61 175 1 175.28 
45496 901.00 975.87 174 1 175.22 
45511 1036.00 978.73 173 1 174.98 
45526 887.00 974.36 172 1 174.58 
45541 998.00 975.49 171 1 174.07 
45556 937.00 973.66 170 1 173.45 
45571 1039.00 976.77 169 1 172.76 
45586 1021.00 978.87 168 1 172.01 
45601 1040.00 981.78 168 1 171.21 
45616 905.00 978.13 167 1 170.57 
45631 889.00 973.88 166 1 169.85 
45646 892.00 969.98 165 1 169.08 
45661 1065.00 974.51 164 1 168.27 
45676 1079.00 979.48 163 1 167.41 
45691 960.00 978.56 162 1 166.53 
45705 1056.00 982.24 162 1 165.62 
45720 1219.00 993.52 162 1 164.90 
45735 1141.00 1000.54 162 1 164.32 
45750 964.00 998.80 162 1 163.86 
45765 992.00 998.48 162 1 163.48 
45780 631.00 980.98 162 1 163.19 
45795 846.00 974.55 161 1 162.95 
45810 913.00 971.62 160 1 162.56 
45825 1051.00 975.40 159 1 162.05 
45840 816.00 967.81 158 1 161.44 
45855 856.00 962.49 157 1 160.75 
45870 1057.00 966.99 156 1 160.00 
45885 948.00 966.08 155 1 159.20 
45900 984.00 966.94 154 1 158.36 
45915 1069.00 971.80 153 1 157.49 
45930 947.00 970.61 152 1 156.59 
45945 827.00 963.78 151 1 155.67 
45960 1097.00 970.12 150 1 154.74 
45975 1187.00 980.45 150 1 153.79 
45990 945.00 978.76 149 1 153.03 
46005 735.00 967.15 148 1 152.23 
46020 1004.00 968.91 147 1 151.38 
46035 869.00 964.15 146 1 150.50 
46050 982.00 965.00 145 1 149.60 
46065 1095.00 971.19 144 1 148.68 
46080 818.00 963.90 143 1 147.75 
46095 964.00 963.90 142 1 146.80 
46110 1012.00 966.19 141 1 145.84 
46125 1019.00 968.71 140 1 144.87 
46140 1074.00 973.72 139 1 143.90 
46155 998.00 974.88 138 1 142.92 
46170 1196.00 985.41 138 1 141.93 
46185 917.00 982.15 138 1 141.15 
46200 981.00 982.09 138 1 140.52 
46215 1020.00 983.90 138 1 140.01 
46230 908.00 980.28 138 1 139.61 
46245 940.00 978.37 137 1 139.29 
46260 1016.00 980.16 137 1 138.83 
46275 873.00 975.06 136 1 138.46 
46290 975.00 975.05 135 1 137.97 
46305 927.00 972.76 134 1 137.38 
46320 946.00 971.49 133 1 136.70 
46335 975.00 971.66 132 1 135.96 
46350 950.00 970.63 131 1 135.17 
46365 960.00 970.12 130 1 134.34 
46380 957.00 969.50 129 1 133.47 
46395 934.00 967.80 128 1 132.57 
46410 976.00 968.20 127 1 131.66 
46425 882.00 964.09 126 1 130.73 
46440 982.00 964.94 125 1 129.78 
46455 861.00 959.99 124 1 128.83 
46470 1009.00 962.33 123 1 127.86 
46485 936.00 961.07 122 1 126.89 
46500 941.00 960.12 121 1 125.91 
46515 943.00 959.30 120 1 124.93 
46530 1071.00 964.62 119 1 123.94 
46545 969.00 964.83 118 1 122.95 
46560 932.00 963.27 117 1 121.96 
46575 989.00 964.49 116 1 120.97 
46590 968.00 964.66 115 1 119.98 
46605 942.00 963.58 114 1 118.98 
46620 982.00 964.46 113 1 117.99 
46635 949.00 963.72 112 1 116.99 
46650 974.00 964.21 111 1 115.99 
46665 968.00 964.39 110 1 114.99 
46680 987.00 965.47 109 1 113.99 
46695 929.00 963.73 108 1 113.00 
46710 940.00 962.60 107 1 112.00 
46724 966.00 962.76 106 1 111.00 
46739 909.00 960.20 105 1 110.00 
46754 973.00 960.81 104 1 109.00 
46769 991.00 962.25 103 1 108.00 
46784 944.00 961.38 102 1 107.00 
46799 961.00 961.36 101 1 106.00 
46814 951.00 960.87 100 1 105.00 
46829 971.00 961.35 99 1 104.00 
46844 965.00 961.53 98 1 103.00 
46859 952.00 961.07 97 1 102.00 
46874 947.00 960.40 96 1 101.00 
46889 956.00 960.19 95 1 100.00 
46904 967.00 960.52 94 1 99.00 
46919 957.00 960.35 93 1 98.00 
46934 988.00 961.67 92 1 97.00 
46949 956.00 961.40 91 1 96.00 
46964 957.00 961.19 90 1 95.00 
46979 955.00 960.89 89 1 94.00 
46995 974.00 961.52 88 1 93.00 
47010 957.00 961.30 87 1 92.00 
47024 977.00 962.05 86 1 91.00 
47040 961.00 962.00 85 1 90.00 
47055 990.00 963.33 84 1 89.00 
47070 975.00 963.89 83 1 88.00 
47085 961.00 963.75 82 1 87.00 
47100 944.00 962.81 81 1 86.00 
47115 943.00 961.87 80 1 85.00 
47130 934.00 960.54 79 1 84.00 
47145 911.00 958.18 77 1 83.00 
47160 936.00 957.12 75 1 81.80 
47175 936.00 956.12 73 1 80.44 
47190 961.00 956.35 71 1 78.95 
47205 985.00 957.71 69 1 77.36 
47220 953.00 957.49 67 1 75.69 
47235 954.00 957.32 65 1 73.95 
47250 964.00 957.64 63 1 72.16 
47265 965.00 957.99 61 1 70.33 
47280 956.00 957.90 59 1 68.46 
47295 977.00 958.81 57 1 66.57 
47310 956.00 958.67 55 1 64.66 
47325 935.00 957.55 53 1 62.73 
47340 927.00 956.09 51 1 60.78 
47355 944.00 955.52 49 1 58.82 
47370 951.00 955.30 47 1 56.86 
47385 969.00 955.95 45 1 54.89 
47400 958.00 956.05 43 1 52.91 
47415 940.00 955.29 41 1 50.93 
47430 964.00 955.70 39 1 48.94 
47445 934.00 954.67 37 1 46.95 
47460 962.00 955.02 35 1 44.96 
47475 911.00 952.92 33 1 42.97 
47490 974.00 953.92 31 1 40.98 
47505 956.00 954.02 29 1 38.98 
47520 982.00 955.36 27 1 36.98 
47535 945.00 954.86 25 1 34.99 
47550 950.00 954.63 23 1 32.99 
47565 971.00 955.41 21 1 30.99 
47580 959.00 955.58 19 1 28.99 
47595 960.00 955.79 17 1 27.00 
47610 958.00 955.90 15 1 25.00 
47625 936.00 954.95 13 1 23.00 
47640 937.00 954.09 11 1 21.00 
found TOS!TTTTTTTTTTTTTTTTTTTTTTTT
47656 955.00 954.14 0 0 19.00 
channel: 88
size: 2
method: 1
Transmission failed or timed out
47718 905.00 951.80 -1 0 15.20 
47733 971.00 952.71 -2 0 11.96 
47748 976.00 953.82 -3 0 9.17 
47763 986.00 955.35 -4 0 6.73 
47778 957.00 955.43 -5 0 4.59 
47793 920.00 953.74 -6 0 2.67 
47808 906.00 951.47 -7 0 0.94 
47823 967.00 952.21 -8 0 -0.65 
47838 913.00 950.34 -9 0 -2.12 
47853 935.00 949.61 -10 0 -3.50 
47868 977.00 950.92 -11 0 -4.80 
47883 921.00 949.49 -12 0 -6.04 
47898 1183.00 960.61 -12 0 -7.23 
47913 976.00 961.34 -12 0 -8.18 
47928 966.00 961.57 -12 0 -8.95 
47943 966.00 961.78 -12 0 -9.56 
47958 1052.00 966.07 -12 0 -10.05 
47973 1057.00 970.40 -12 0 -10.44 
47988 957.00 969.77 -12 0 -10.75 
48003 928.00 967.78 -12 0 -11.00 
48018 1028.00 970.64 -12 0 -11.20 
48033 898.00 967.18 -12 0 -11.36 
48048 1014.00 969.41 -12 0 -11.49 
48063 940.00 968.01 -12 0 -11.59 
48078 1020.00 970.49 -12 0 -11.67 
48093 1065.00 974.99 -12 0 -11.74 
48108 1040.00 978.09 -12 0 -11.79 
48123 849.00 971.94 -12 0 -11.83 
48138 1066.00 976.42 -12 0 -11.87 
48153 924.00 973.92 -12 0 -11.89 
48168 939.00 972.26 -12 0 -11.91 
48183 942.00 970.82 -12 0 -11.93 
48198 1052.00 974.68 -12 0 -11.95 
48213 1033.00 977.46 -12 0 -11.96 
48228 869.00 972.30 -12 0 -11.96 
48243 1027.00 974.90 -12 0 -11.97 
48258 1080.00 979.91 -12 0 -11.98 
48273 882.00 975.24 -12 0 -11.98 
48288 923.00 972.76 -12 0 -11.99 
48303 967.00 972.48 -12 0 -11.99 
48318 836.00 965.98 -12 0 -11.99 
48333 1148.00 974.65 -12 0 -11.99 
48348 947.00 973.33 -12 0 -11.99 
48363 818.00 965.94 -12 0 -12.00 
48378 1000.00 967.56 -12 0 -12.00 
48393 804.00 959.77 -12 0 -12.00 
48408 904.00 957.11 -13 0 -12.00 
48423 915.00 955.11 -14 0 -12.20 
48438 1025.00 958.44 -15 0 -12.56 
48453 867.00 954.08 -16 0 -13.05 
48468 905.00 951.75 -17 0 -13.64 
48483 1007.00 954.38 -18 0 -14.31 
48498 940.00 953.69 -19 0 -15.05 
48513 902.00 951.23 -20 0 -15.84 
48528 945.00 950.93 -21 0 -16.67 
48543 876.00 947.37 -22 0 -17.54 
48558 903.00 945.25 -23 0 -18.43 
48573 1058.00 950.62 -24 0 -19.34 
48588 1078.00 956.69 -25 0 -20.27 
48603 1005.00 958.99 -26 0 -21.22 
48618 965.00 959.27 -27 0 -22.18 
48633 991.00 960.79 -27 0 -23.14 
48648 855.00 955.75 -28 0 -23.91 
48663 1021.00 958.85 -29 0 -24.73 
48678 1056.00 963.48 -29 0 -25.58 
48693 1071.00 968.60 -29 0 -26.27 
48708 906.00 965.62 -29 0 -26.81 
48723 1161.00 974.92 -29 0 -27.25 
48738 1068.00 979.36 -29 0 -27.60 
48753 967.00 978.77 -29 0 -27.88 
48768 981.00 978.87 -29 0 -28.10 
48783 1036.00 981.59 -28 0 -28.28 
48798 1097.00 987.09 -27 0 -28.23 
48813 891.00 982.51 -26 0 -27.98 
48828 646.00 966.49 -26 0 -27.59 
48843 1163.00 975.85 -26 0 -27.27 
48858 1056.00 979.66 -26 0 -27.01 
48873 1054.00 983.20 -25 0 -26.81 
48888 1240.00 995.43 -24 0 -26.45 
48903 1064.00 998.70 -23 0 -25.96 
48918 687.00 983.85 -22 0 -25.37 
48933 972.00 983.29 -21 0 -24.69 
48948 980.00 983.13 -20 0 -23.96 
48963 1228.00 994.79 -19 0 -23.16 
48978 1228.00 1005.90 -17 0 -22.33 
48993 789.00 995.57 -16 0 -21.27 
49008 976.00 994.64 -15 0 -20.21 
49023 947.00 992.37 -14 0 -19.17 
49038 1171.00 1000.88 -12 0 -18.14 
49053 1046.00 1003.02 -10 0 -16.91 
49068 1019.00 1003.79 -8 0 -15.53 
49083 1009.00 1004.03 -6 0 -14.02 
49098 967.00 1002.27 -4 0 -12.42 
49113 1006.00 1002.45 -2 0 -10.73 
49128 889.00 997.05 -1 0 -8.99 
49143 966.00 995.57 0 0 -7.39 
49158 997.00 995.64 0 0 -5.91 
49173 1037.00 997.61 0 0 -4.73 
49188 730.00 984.86 0 0 -3.78 
49203 874.00 979.58 0 0 -3.03 
49218 1031.00 982.03 0 0 -2.42 
49233 1053.00 985.41 0 0 -1.94 
49248 1055.00 988.72 0 0 -1.55 
49263 995.00 989.02 0 0 -1.24 
49278 995.00 989.31 0 0 -0.99 
49293 1052.00 992.29 0 0 -0.79 
49308 1156.00 1000.09 0 0 -0.63 
49323 983.00 999.28 0 0 -0.51 
49338 979.00 998.31 0 0 -0.41 
49353 995.00 998.15 0 0 -0.32 
49368 1128.00 1004.34 1 0 -0.26 
49383 909.00 999.80 1 0 -0.01 
49398 950.00 997.42 1 0 0.19 
49413 959.00 995.59 1 0 0.35 
49428 843.00 988.33 1 0 0.48 
49443 826.00 980.60 1 0 0.59 
49458 1288.00 995.24 1 0 0.67 
49472 876.00 989.56 1 0 0.74 
49487 890.00 984.82 1 0 0.79 
49502 557.00 964.45 0 0 0.83 
49517 1209.00 976.09 0 0 0.66 
49532 974.00 975.99 0 0 0.53 
49547 1174.00 985.42 0 0 0.43 
49562 879.00 980.35 0 0 0.34 
49577 1228.00 992.15 0 0 0.27 
49592 1160.00 1000.14 0 0 0.22 
49607 1196.00 1009.47 1 0 0.17 
49622 1101.00 1013.82 2 0 0.34 
49637 1198.00 1022.59 4 0 0.67 
49652 958.00 1019.52 5 0 1.34 
49667 790.00 1008.59 6 0 2.07 
49682 1118.00 1013.80 7 0 2.86 
49697 1232.00 1024.19 9 0 3.68 
49711 1199.00 1032.51 11 0 4.75 
49726 912.00 1026.78 13 0 6.00 
49741 1060.00 1028.36 15 0 7.40 
49756 1023.00 1028.10 17 0 8.92 
49771 972.00 1025.43 19 0 10.54 
49786 996.00 1024.03 21 0 12.23 
49801 1006.00 1023.17 23 0 13.98 
49816 868.00 1015.78 24 0 15.79 
49831 950.00 1012.65 25 0 17.43 
49846 856.00 1005.19 26 0 18.94 
49861 1028.00 1006.28 27 0 20.35 
49876 975.00 1004.79 28 0 21.68 
49891 1056.00 1007.23 29 0 22.95 
49906 879.00 1001.12 30 0 24.16 
49921 842.00 993.54 30 0 25.33 
49936 1052.00 996.33 30 0 26.26 
49951 933.00 993.31 30 0 27.01 
49966 978.00 992.58 30 0 27.61 
49981 1031.00 994.41 30 0 28.09 
49996 1102.00 999.53 30 0 28.47 
50011 962.00 997.75 30 0 28.77 
50026 1029.00 999.24 30 0 29.02 
50041 1006.00 999.56 30 0 29.22 
50056 988.00 999.01 30 0 29.37 
50071 1165.00 1006.91 31 0 29.50 
50086 1081.00 1010.44 32 0 29.80 
50101 885.00 1004.47 33 0 30.24 
50116 937.00 1001.25 34 0 30.79 
50131 1023.00 1002.29 35 0 31.43 
50146 903.00 997.56 35 0 32.15 
50161 1007.00 998.01 35 0 32.72 
50176 1037.00 999.87 35 0 33.17 
50191 916.00 995.87 35 0 33.54 
50206 1050.00 998.45 35 0 33.83 
50221 1090.00 1002.81 36 0 34.06 
50236 1005.00 1002.91 37 0 34.45 
50251 839.00 995.11 37 0 34.96 
50266 970.00 993.91 37 0 35.37 
50281 902.00 989.54 37 0 35.70 
50296 1246.00 1001.75 38 0 35.96 
50311 1032.00 1003.19 39 0 36.37 
50326 1061.00 1005.94 40 0 36.89 
50341 989.00 1005.14 41 0 37.51 
50356 1110.00 1010.13 42 0 38.21 
50371 980.00 1008.69 43 0 38.97 
50385 1052.00 1010.76 44 0 39.77 
50400 967.00 1008.67 45 0 40.62 
50415 983.00 1007.45 46 0 41.50 
50430 970.00 1005.67 47 0 42.40 
50445 996.00 1005.21 48 0 43.32 
50460 1012.00 1005.53 49 0 44.25 
50475 1030.00 1006.70 50 0 45.20 
50490 1313.00 1021.28 52 0 46.16 
50505 775.00 1009.55 53 0 47.33 
50520 1172.00 1017.29 54 0 48.46 
50535 985.00 1015.75 55 0 49.57 
50550 967.00 1013.43 56 0 50.66 
50565 1097.00 1017.41 57 0 51.73 
50580 1015.00 1017.29 58 0 52.78 
50595 965.00 1014.80 59 0 53.82 
50610 993.00 1013.77 60 0 54.86 
50625 1050.00 1015.49 61 0 55.89 
50640 959.00 1012.80 62 0 56.91 
50655 1144.00 1019.05 63 0 57.93 
50670 828.00 1009.95 64 0 58.94 
50685 936.00 1006.43 65 0 59.95 
50700 1060.00 1008.98 66 0 60.96 
50715 1111.00 1013.84 67 0 61.97 
50730 1076.00 1016.80 68 0 62.98 
50745 1054.00 1018.57 69 0 63.98 
50760 1055.00 1020.31 71 0 64.98 
50775 1064.00 1022.39 73 0 66.19 
50790 1074.00 1024.84 75 0 67.55 
50805 1008.00 1024.04 77 0 69.04 
50820 1018.00 1023.75 79 0 70.63 
50835 1055.00 1025.24 81 0 72.31 
50850 997.00 1023.90 83 0 74.04 
50865 1048.00 1025.05 85 0 75.84 
50880 1021.00 1024.85 87 0 77.67 
50895 1057.00 1026.38 89 0 79.53 
50910 1031.00 1026.60 91 0 81.43 
50925 981.00 1024.43 93 0 83.34 
50940 1244.00 1034.89 95 0 85.27 
50955 946.00 1030.65 97 0 87.22 
50970 1052.00 1031.67 99 0 89.18 
found BOS! BBBBBBBBBBBBBBBBBBBBBBBBB
50985 1144.00 1037.02 0 1 91.14 
51000 1080.00 1039.07 3 1 72.91 
51015 1107.00 1042.30 6 1 58.93 
51030 984.00 1039.53 9 1 48.34 
51044 1035.00 1039.31 12 1 40.48 
51059 1060.00 1040.30 15 1 34.78 
51075 1030.00 1039.80 18 1 30.82 
51089 1040.00 1039.81 21 1 28.26 
51104 1041.00 1039.87 24 1 26.81 
51119 1009.00 1038.40 26 1 26.25 
51135 977.00 1035.48 28 1 26.20 
51149 1055.00 1036.41 30 1 26.56 
51164 1062.00 1037.63 32 1 27.25 
51179 1133.00 1042.17 35 1 28.20 
51194 1031.00 1041.64 38 1 29.56 
51209 1024.00 1040.80 41 1 31.25 
51224 1028.00 1040.19 44 1 33.20 
51239 1076.00 1041.89 47 1 35.36 
51254 942.00 1037.13 49 1 37.69 
51269 983.00 1034.56 51 1 39.95 
51284 1140.00 1039.58 54 1 42.16 
51300 982.00 1036.84 56 1 44.53 
51315 938.00 1032.13 58 1 46.82 
51330 1018.00 1031.46 60 1 49.06 
51345 1003.00 1030.10 62 1 51.25 
51360 994.00 1028.38 64 1 53.40 
51374 1113.00 1032.41 66 1 55.52 
51389 1034.00 1032.49 68 1 57.61 
51404 1063.00 1033.94 70 1 59.69 
51419 1107.00 1037.42 72 1 61.75 
51434 959.00 1033.69 74 1 63.80 
51449 968.00 1030.56 76 1 65.84 
51464 1031.00 1030.58 78 1 67.87 
51479 883.00 1023.55 80 1 69.90 
51494 892.00 1017.29 81 1 71.92 
51509 991.00 1016.04 82 1 73.74 
51524 1051.00 1017.70 83 1 75.39 
51539 1167.00 1024.81 85 1 76.91 
51554 1131.00 1029.87 87 1 78.53 
51569 1023.00 1029.54 89 1 80.22 
51584 958.00 1026.13 91 1 81.98 
51599 918.00 1020.98 93 1 83.78 
51614 975.00 1018.79 95 1 85.63 
51629 937.00 1014.90 96 1 87.50 
51644 1036.00 1015.90 97 1 89.20 
51659 1109.00 1020.34 99 1 90.76 
51674 1157.00 1026.84 101 1 92.41 
51689 1127.00 1031.61 103 1 94.13 
51704 1014.00 1030.78 105 1 95.90 
51719 1104.00 1034.26 107 1 97.72 
51734 943.00 1029.92 109 1 99.58 
51749 1096.00 1033.06 111 1 101.46 
51764 943.00 1028.77 113 1 103.37 
51779 1014.00 1028.07 115 1 105.30 
51794 859.00 1020.02 117 1 107.24 
51809 877.00 1013.21 118 1 109.19 
51824 1068.00 1015.82 119 1 110.95 
51839 823.00 1006.64 120 1 112.56 
51854 448.00 980.03 120 1 114.05 
51869 1244.00 992.60 120 1 115.24 
51884 677.00 977.58 119 1 116.19 
51899 661.00 962.50 118 1 116.75 
51914 1128.00 970.38 117 1 117.00 
51929 1309.00 986.51 117 1 117.00 
51944 711.00 973.39 116 1 117.00 
51959 1099.00 979.37 115 1 116.80 
51974 815.00 971.54 114 1 116.44 
51989 851.00 965.80 113 1 115.95 
52004 1063.00 970.43 112 1 115.36 
52019 1100.00 976.60 111 1 114.69 
52034 687.00 962.81 110 1 113.95 
52049 999.00 964.53 109 1 113.16 
52064 1028.00 967.56 108 1 112.33 
52079 1013.00 969.72 107 1 111.46 
52094 810.00 962.11 106 1 110.57 
52109 1173.00 972.16 105 1 109.66 
52124 941.00 970.67 104 1 108.73 
52139 1044.00 974.16 103 1 107.78 
52154 927.00 971.92 102 1 106.82 
52169 983.00 972.45 101 1 105.86 
52184 1182.00 982.42 101 1 104.89 
52199 992.00 982.88 101 1 104.11 
52214 935.00 980.60 101 1 103.49 
52228 1069.00 984.81 101 1 102.99 
52244 907.00 981.10 101 1 102.59 
52259 949.00 979.58 100 1 102.27 
52273 866.00 974.17 99 1 101.82 
52288 964.00 973.68 98 1 101.26 
52303 1142.00 981.70 98 1 100.60 
52318 1042.00 984.57 98 1 100.08 
52333 932.00 982.07 98 1 99.67 
52348 938.00 979.97 97 1 99.33 
52363 896.00 975.97 96 1 98.87 
52378 1168.00 985.11 96 1 98.29 
52393 904.00 981.25 96 1 97.83 
52408 1224.00 992.81 96 1 97.47 
52423 722.00 979.92 95 1 97.17 
52438 1055.00 983.49 95 1 96.74 
52453 957.00 982.23 95 1 96.39 
52468 773.00 972.27 94 1 96.11 
52483 941.00 970.78 93 1 95.69 
52498 1016.00 972.93 92 1 95.15 
52513 839.00 966.55 91 1 94.52 
52528 978.00 967.10 90 1 93.82 
52543 784.00 958.38 88 1 93.05 
52558 947.00 957.84 86 1 92.04 
52573 1312.00 974.70 85 1 90.83 
52588 680.00 960.67 83 1 89.67 
52603 903.00 957.92 81 1 88.33 
52618 999.00 959.88 79 1 86.87 
52633 642.00 944.74 77 1 85.29 
52648 736.00 934.80 74 1 83.64 
52663 676.00 922.48 70 1 81.71 
52678 724.00 913.03 66 1 79.37 
52693 987.00 916.55 62 1 76.69 
52708 1012.00 921.09 58 1 73.75 
52723 1008.00 925.23 55 1 70.60 
52738 1059.00 931.60 52 1 67.48 
52753 993.00 934.53 49 1 64.39 
52768 1043.00 939.69 46 1 61.31 
52783 945.00 939.94 43 1 58.25 
52798 816.00 934.04 40 1 55.20 
52813 1017.00 937.99 37 1 52.16 
52828 864.00 934.47 34 1 49.13 
52843 946.00 935.02 31 1 46.10 
52857 984.00 937.35 28 1 43.08 
52872 1051.00 942.76 26 1 40.06 
52887 995.00 945.25 24 1 37.25 
52902 878.00 942.05 21 1 34.60 
52917 861.00 938.19 18 1 31.88 
52932 866.00 934.75 15 1 29.10 
52947 1131.00 944.10 13 1 26.28 
52962 850.00 939.62 10 1 23.63 
found TOS!TTTTTTTTTTTTTTTTTTTTTTTT
52977 811.00 933.49 0 0 20.90 
channel: 88
size: 2
method: 1
Transmission failed or timed out
53040 962.00 934.85 -2 0 16.72 
53055 950.00 935.57 -4 0 12.98 
53070 909.00 934.30 -6 0 9.58 
53085 769.00 926.43 -8 0 6.47 
53100 959.00 927.98 -10 0 3.57 
53115 885.00 925.94 -12 0 0.86 
53130 739.00 917.04 -15 0 -1.71 
53145 840.00 913.37 -18 0 -4.37 
53160 816.00 908.73 -21 0 -7.10 
53175 805.00 903.79 -25 0 -9.88 
53190 792.00 898.47 -29 0 -12.90 
53205 933.00 900.11 -33 0 -16.12 
53220 1092.00 909.25 -36 0 -19.50 
53235 869.00 907.33 -39 0 -22.80 
53250 787.00 901.60 -43 0 -26.04 
53265 999.00 906.24 -46 0 -29.43 
53280 1028.00 912.04 -49 0 -32.74 
53295 942.00 913.47 -52 0 -36.00 
53310 1052.00 920.06 -55 0 -39.20 
53325 1245.00 935.54 -57 0 -42.36 
53340 829.00 930.46 -59 0 -45.29 
53355 721.00 920.49 -62 0 -48.03 
53370 946.00 921.70 -65 0 -50.82 
53385 1179.00 933.96 -67 0 -53.66 
53400 961.00 935.24 -69 0 -56.33 
53415 1049.00 940.66 -71 0 -58.86 
53430 1177.00 951.91 -72 0 -61.29 
53445 878.00 948.39 -73 0 -63.43 
53460 922.00 947.14 -74 0 -65.34 
53475 942.00 946.89 -75 0 -67.08 
53490 1037.00 951.18 -76 0 -68.66 
53505 1077.00 957.18 -77 0 -70.13 
53520 991.00 958.79 -78 0 -71.50 
53535 1002.00 960.84 -79 0 -72.80 
53550 851.00 955.61 -80 0 -74.04 
53565 931.00 954.44 -81 0 -75.23 
53580 1020.00 957.56 -82 0 -76.39 
53595 840.00 951.96 -83 0 -77.51 
53610 903.00 949.63 -84 0 -78.61 
53625 893.00 946.94 -85 0 -79.69 
53640 975.00 948.27 -86 0 -80.75 
53655 846.00 943.40 -87 0 -81.80 
53670 876.00 940.19 -89 0 -82.84 
53685 989.00 942.52 -91 0 -84.07 
53700 955.00 943.11 -92 0 -85.46 
53715 1032.00 947.34 -93 0 -86.77 
53730 1010.00 950.33 -94 0 -88.01 
53745 924.00 949.07 -95 0 -89.21 
53760 904.00 946.93 -96 0 -90.37 
53775 934.00 946.31 -97 0 -91.49 
53790 955.00 946.73 -98 0 -92.60 
53805 932.00 946.02 -99 0 -93.68 
53820 940.00 945.74 -100 0 -94.74 
53835 1046.00 950.51 -101 0 -95.79 
53850 970.00 951.44 -102 0 -96.83 
53865 945.00 951.13 -103 0 -97.87 
53880 1005.00 953.70 -104 0 -98.89 
53895 990.00 955.43 -105 0 -99.92 
53910 954.00 955.36 -106 0 -100.93 
53924 973.00 956.20 -107 0 -101.95 
53940 930.00 954.95 -108 0 -102.96 
53955 927.00 953.62 -109 0 -103.97 
53970 1018.00 956.69 -110 0 -104.97 
53985 1002.00 958.84 -111 0 -105.98 
54000 969.00 959.33 -112 0 -106.98 
54015 987.00 960.65 -113 0 -107.99 
54030 938.00 959.57 -114 0 -108.99 
54045 897.00 956.59 -115 0 -109.99 
54060 989.00 958.13 -116 0 -110.99 
54075 919.00 956.27 -117 0 -111.99 
54090 946.00 955.78 -118 0 -113.00 
54105 959.00 955.93 -119 0 -114.00 
54120 948.00 955.55 -120 0 -115.00 
54135 977.00 956.58 -121 0 -116.00 
54150 966.00 957.02 -122 0 -117.00 
54165 970.00 957.64 -123 0 -118.00 
54180 971.00 958.28 -124 0 -119.00 
54195 941.00 957.46 -125 0 -120.00 
54210 927.00 956.01 -126 0 -121.00 
54225 941.00 955.29 -127 0 -122.00 
54240 950.00 955.04 -128 0 -123.00 
54255 968.00 955.66 -129 0 -124.00 
54270 986.00 957.10 -130 0 -125.00 
54285 943.00 956.43 -131 0 -126.00 
54300 941.00 955.69 -132 0 -127.00 
54315 949.00 955.38 -133 0 -128.00 
54330 950.00 955.12 -134 0 -129.00 
54345 945.00 954.64 -135 0 -130.00 
54360 970.00 955.37 -136 0 -131.00 
54375 956.00 955.40 -137 0 -132.00 
54390 978.00 956.48 -138 0 -133.00 
54405 980.00 957.60 -139 0 -134.00 
54420 946.00 957.04 -140 0 -135.00 
54435 984.00 958.33 -141 0 -136.00 
54450 967.00 958.74 -142 0 -137.00 
54465 949.00 958.28 -143 0 -138.00 
54481 892.00 955.12 -144 0 -139.00 
54496 968.00 955.73 -145 0 -140.00 
54511 934.00 954.70 -146 0 -141.00 
54526 938.00 953.90 -147 0 -142.00 
54541 962.00 954.29 -148 0 -143.00 
54556 964.00 954.75 -149 0 -144.00 
54571 947.00 954.38 -150 0 -145.00 
54586 954.00 954.36 -151 0 -146.00 
54601 943.00 953.82 -152 0 -147.00 
54616 952.00 953.74 -153 0 -148.00 
54631 962.00 954.13 -154 0 -149.00 
54646 958.00 954.31 -155 0 -150.00 
54661 970.00 955.06 -156 0 -151.00 
54676 958.00 955.20 -157 0 -152.00 
54691 952.00 955.05 -158 0 -153.00 
54706 937.00 954.19 -159 0 -154.00 
54721 918.00 952.47 -160 0 -155.00 
54736 934.00 951.59 -161 0 -156.00 
54751 925.00 950.32 -162 0 -157.00 
54766 988.00 952.11 -163 0 -158.00 
54781 983.00 953.59 -164 0 -159.00 
54796 982.00 954.94 -165 0 -160.00 
54811 981.00 956.18 -166 0 -161.00 
54826 971.00 956.89 -167 0 -162.00 
54841 948.00 956.46 -168 0 -163.00 
54856 963.00 956.77 -169 0 -164.00 
54871 935.00 955.74 -170 0 -165.00 
54887 909.00 953.51 -171 0 -166.00 
54902 948.00 953.25 -172 0 -167.00 
54917 959.00 953.52 -173 0 -168.00 
54932 990.00 955.26 -174 0 -169.00 
54947 995.00 957.15 -175 0 -170.00 
54962 975.00 958.00 -176 0 -171.00 
54977 948.00 957.53 -177 0 -172.00 
54992 917.00 955.60 -178 0 -173.00 
55007 909.00 953.38 -179 0 -174.00 
55022 938.00 952.64 -180 0 -175.00 
55037 983.00 954.09 -181 0 -176.00 
55052 936.00 953.23 -182 0 -177.00 
55067 995.00 955.22 -183 0 -178.00 
55082 950.00 954.97 -184 0 -179.00 
55097 1003.00 957.26 -185 0 -180.00 
55112 949.00 956.86 -186 0 -181.00 
55127 957.00 956.87 -187 0 -182.00 
55142 906.00 954.45 -188 0 -183.00 
55157 959.00 954.66 -189 0 -184.00 
55172 937.00 953.82 -190 0 -185.00 
55187 945.00 953.40 -191 0 -186.00 
55202 989.00 955.10 -192 0 -187.00 
55217 967.00 955.66 -193 0 -188.00 
55232 978.00 956.73 -194 0 -189.00 
55247 904.00 954.22 -195 0 -190.00 
55262 998.00 956.30 -196 0 -191.00 
55277 957.00 956.34 -197 0 -192.00 
55292 981.00 957.51 -198 0 -193.00 
55307 1100.00 964.30 -198 0 -194.00 
55322 1045.00 968.14 -198 0 -194.80 
55337 1038.00 971.47 -198 0 -195.44 
55352 989.00 972.30 -198 0 -195.95 
55367 879.00 967.86 -198 0 -196.36 
55382 927.00 965.91 -198 0 -196.69 
55397 992.00 967.15 -198 0 -196.95 
55412 777.00 958.10 -199 0 -197.16 
55427 1057.00 962.81 -199 0 -197.53 
55442 1044.00 966.67 -199 0 -197.82 
55457 905.00 963.74 -199 0 -198.06 
55472 911.00 961.23 -200 0 -198.25 
55487 975.00 961.88 -201 0 -198.60 
55502 902.00 959.03 -202 0 -199.08 
55517 977.00 959.89 -203 0 -199.66 
55532 995.00 961.56 -204 0 -200.33 
55547 1143.00 970.20 -204 0 -201.06 
55562 959.00 969.67 -204 0 -201.65 
55577 937.00 968.11 -204 0 -202.12 
55592 833.00 961.68 -205 0 -202.50 
55607 1016.00 964.26 -205 0 -203.00 
55622 915.00 961.92 -206 0 -203.40 
55637 1109.00 968.92 -206 0 -203.92 
55652 881.00 964.73 -206 0 -204.33 
55667 975.00 965.22 -206 0 -204.67 
55682 847.00 959.59 -207 0 -204.93 
55697 947.00 958.99 -208 0 -205.35 
55712 1049.00 963.28 -208 0 -205.88 
55727 1038.00 966.84 -208 0 -206.30 
55742 947.00 965.89 -208 0 -206.64 
55757 933.00 964.33 -208 0 -206.91 
55772 1017.00 966.84 -208 0 -207.13 
55787 908.00 964.03 -208 0 -207.30 
55802 950.00 963.37 -208 0 -207.44 
55817 953.00 962.87 -208 0 -207.55 
55832 1046.00 966.83 -208 0 -207.64 
55847 1039.00 970.27 -208 0 -207.72 
55862 871.00 965.54 -208 0 -207.77 
55877 887.00 961.80 -209 0 -207.82 
55892 945.00 961.00 -210 0 -208.05 
55907 1017.00 963.67 -210 0 -208.44 
55922 1054.00 967.97 -210 0 -208.75 
55937 1157.00 976.97 -210 0 -209.00 
55952 945.00 975.45 -210 0 -209.20 
55967 1026.00 977.85 -210 0 -209.36 
55982 997.00 978.77 -210 0 -209.49 
55997 964.00 978.06 -210 0 -209.59 
56012 939.00 976.20 -210 0 -209.67 
56027 1006.00 977.62 -210 0 -209.74 
56042 1081.00 982.54 -209 0 -209.79 
56057 943.00 980.66 -208 0 -209.63 
56072 938.00 978.63 -208 0 -209.31 
56087 1073.00 983.12 -207 0 -209.05 
56102 1182.00 992.59 -206 0 -208.64 
56117 995.00 992.71 -205 0 -208.11 
56132 981.00 992.15 -204 0 -207.49 
56147 775.00 981.81 -203 0 -206.79 
56162 786.00 972.49 -203 0 -206.03 
56177 950.00 971.42 -203 0 -205.43 
56192 1021.00 973.78 -203 0 -204.94 
56207 992.00 974.64 -203 0 -204.55 
56222 1043.00 977.90 -203 0 -204.24 
56237 902.00 974.29 -203 0 -203.99 
56252 928.00 972.08 -203 0 -203.79 
56267 989.00 972.89 -203 0 -203.64 
56282 1002.00 974.27 -203 0 -203.51 
56297 1071.00 978.88 -203 0 -203.41 
56312 894.00 974.84 -203 0 -203.33 
56327 897.00 971.13 -203 0 -203.26 
56342 810.00 963.46 -203 0 -203.21 
56357 897.00 960.29 -204 0 -203.17 
56372 985.00 961.47 -205 0 -203.33 
56387 963.00 961.54 -206 0 -203.67 
56402 956.00 961.28 -207 0 -204.13 
56417 1093.00 967.55 -207 0 -204.71 
56432 996.00 968.91 -207 0 -205.17 
56447 871.00 964.24 -207 0 -205.53 
56462 978.00 964.90 -207 0 -205.83 
56477 909.00 962.24 -208 0 -206.06 
56492 910.00 959.75 -209 0 -206.45 
56507 877.00 955.81 -210 0 -206.96 
56522 1058.00 960.68 -211 0 -207.57 
56537 912.00 958.36 -212 0 -208.25 
56552 922.00 956.63 -213 0 -209.00 
56567 928.00 955.26 -214 0 -209.80 
56582 927.00 953.92 -215 0 -210.64 
56597 1058.00 958.87 -216 0 -211.51 
56612 887.00 955.45 -217 0 -212.41 
56627 1088.00 961.76 -218 0 -213.33 
56642 1036.00 965.30 -218 0 -214.26 
56657 1101.00 971.76 -218 0 -215.01 
56672 946.00 970.53 -218 0 -215.61 
56687 1033.00 973.51 -218 0 -216.09 
56702 1108.00 979.91 -218 0 -216.47 
56717 1002.00 980.96 -217 0 -216.78 
56732 862.00 975.30 -217 0 -216.82 
56747 949.00 974.05 -217 0 -216.86 
56762 978.00 974.24 -217 0 -216.89 
56777 841.00 967.89 -217 0 -216.91 
56792 1115.00 974.90 -217 0 -216.93 
56807 826.00 967.81 -217 0 -216.94 
56822 758.00 957.81 -218 0 -216.95 
56837 1124.00 965.73 -218 0 -217.16 
56852 1049.00 969.69 -218 0 -217.33 
56867 911.00 966.90 -218 0 -217.46 
56882 940.00 965.62 -218 0 -217.57 
56897 1215.00 977.49 -218 0 -217.66 
56912 1010.00 979.04 -218 0 -217.73 
56927 1098.00 984.71 -217 0 -217.78 
56942 1306.00 1000.01 -215 0 -217.62 
56957 1150.00 1007.15 -213 0 -217.10 
56972 1005.00 1007.05 -211 0 -216.28 
56987 835.00 998.85 -209 0 -215.22 
57002 964.00 997.19 -208 0 -213.98 
57017 1325.00 1012.80 -206 0 -212.78 
57032 1199.00 1021.67 -203 0 -211.43 
57047 865.00 1014.21 -201 0 -209.74 
57062 858.00 1006.77 -199 0 -207.99 
57077 915.00 1002.40 -197 0 -206.19 
57092 1012.00 1002.86 -195 0 -204.36 
57107 756.00 991.10 -194 0 -202.48 
57122 1052.00 994.00 -193 0 -200.79 
57137 1226.00 1005.05 -191 0 -199.23 
57152 981.00 1003.91 -189 0 -197.58 
57167 998.00 1003.62 -187 0 -195.87 
57182 955.00 1001.31 -185 0 -194.09 
57197 1060.00 1004.10 -183 0 -192.28 
57212 1056.00 1006.57 -181 0 -190.42 
57227 992.00 1005.88 -179 0 -188.54 
57242 985.00 1004.89 -177 0 -186.63 
57257 1018.00 1005.51 -175 0 -184.70 
57272 1036.00 1006.96 -173 0 -182.76 
57287 1128.00 1012.73 -171 0 -180.81 
57302 1011.00 1012.64 -169 0 -178.85 
57317 1192.00 1021.18 -166 0 -176.88 
57332 975.00 1018.99 -163 0 -174.70 
57347 1038.00 1019.89 -160 0 -172.36 
57362 1139.00 1025.56 -157 0 -169.89 
57377 910.00 1020.06 -154 0 -167.31 
57392 1008.00 1019.49 -151 0 -164.65 
57407 1014.00 1019.22 -148 0 -161.92 
57422 897.00 1013.40 -146 0 -159.14 
57437 968.00 1011.24 -144 0 -156.51 
57452 1055.00 1013.33 -142 0 -154.01 
57467 1183.00 1021.41 -139 0 -151.61 
57482 1088.00 1024.58 -136 0 -149.08 
57497 1130.00 1029.60 -133 0 -146.47 
57512 1040.00 1030.09 -130 0 -143.77 
57527 1019.00 1029.56 -127 0 -141.02 
57542 957.00 1026.11 -124 0 -138.22 
57557 896.00 1019.91 -121 0 -135.37 
57572 1012.00 1019.54 -118 0 -132.50 
57587 926.00 1015.08 -115 0 -129.60 
57602 1083.00 1018.32 -112 0 -126.68 
57617 767.00 1006.35 -110 0 -123.74 
57632 806.00 996.81 -109 0 -120.99 
57647 703.00 982.82 -108 0 -118.60 
57662 811.00 974.64 -108 0 -116.48 
57677 988.00 975.27 -108 0 -114.78 
57692 1063.00 979.45 -108 0 -113.42 
57707 1180.00 989.00 -107 0 -112.34 
57722 941.00 986.71 -106 0 -111.27 
57737 1036.00 989.06 -105 0 -110.22 
57752 962.00 987.77 -104 0 -109.17 
57767 1090.00 992.64 -103 0 -108.14 
57782 1181.00 1001.61 -101 0 -107.11 
57797 931.00 998.25 -99 0 -105.89 
57812 1081.00 1002.19 -97 0 -104.51 
57827 1059.00 1004.89 -95 0 -103.01 
57842 920.00 1000.85 -93 0 -101.41 
57857 1101.00 1005.62 -91 0 -99.73 
57872 1057.00 1008.07 -89 0 -97.98 
57887 828.00 999.49 -87 0 -96.18 
57902 961.00 997.66 -85 0 -94.35 
57917 984.00 997.01 -84 0 -92.48 
57932 1154.00 1004.48 -82 0 -90.78 
57947 216.00 966.94 -82 0 -89.03 
57962 1153.00 975.80 -82 0 -87.62 
57977 611.00 958.43 -83 0 -86.50 
57992 1220.00 970.88 -83 0 -85.80 
58007 1102.00 977.13 -83 0 -85.24 
58022 1018.00 979.07 -83 0 -84.79 
58037 1079.00 983.83 -82 0 -84.43 
58052 969.00 983.12 -81 0 -83.95 
58067 976.00 982.79 -80 0 -83.36 
58082 951.00 981.27 -79 0 -82.69 
58097 934.00 979.02 -79 0 -81.95 
58112 999.00 979.97 -79 0 -81.36 
58127 1027.00 982.21 -78 0 -80.89 
58142 995.00 982.82 -77 0 -80.31 
58157 1092.00 988.02 -76 0 -79.65 
58172 1094.00 993.07 -75 0 -78.92 
58187 1167.00 1001.35 -73 0 -78.13 
58202 1045.00 1003.43 -71 0 -77.11 
58217 1013.00 1003.88 -69 0 -75.89 
58232 1005.00 1003.94 -67 0 -74.51 
58247 1148.00 1010.80 -65 0 -73.01 
58262 1030.00 1011.71 -63 0 -71.41 
58277 957.00 1009.11 -61 0 -69.72 
58292 1167.00 1016.62 -58 0 -67.98 
58307 1063.00 1018.83 -55 0 -65.98 
58322 1067.00 1021.13 -52 0 -63.79 
58337 1061.00 1023.03 -49 0 -61.43 
58352 992.00 1021.55 -46 0 -58.94 
58367 1040.00 1022.43 -43 0 -56.35 
58382 1065.00 1024.45 -40 0 -53.68 
58397 1062.00 1026.24 -37 0 -50.95 
58412 1028.00 1026.33 -34 0 -48.16 
58427 1037.00 1026.83 -31 0 -45.33 
58442 1027.00 1026.84 -28 0 -42.46 
58457 1064.00 1028.61 -25 0 -39.57 
58472 1060.00 1030.11 -22 0 -36.66 
58487 1008.00 1029.05 -19 0 -33.72 
58502 1056.00 1030.34 -16 0 -30.78 
58517 1049.00 1031.23 -13 0 -27.82 
58532 994.00 1029.45 -10 0 -24.86 
found BOS! BBBBBBBBBBBBBBBBBBBBBBBBB
58547 1025.00 1029.24 0 1 -21.89 
58562 1015.00 1028.56 2 1 -17.51 
58577 1025.00 1028.39 4 1 -13.61 
58592 1057.00 1029.75 6 1 -10.09 
58607 1011.00 1028.86 8 1 -6.87 
58622 980.00 1026.54 10 1 -3.90 
58637 985.00 1024.56 12 1 -1.12 
58652 951.00 1021.05 14 1 1.51 
58667 1020.00 1021.00 16 1 4.01 
58682 1036.00 1021.72 18 1 6.40 
58697 1022.00 1021.73 20 1 8.72 
58712 970.00 1019.27 22 1 10.98 
58727 929.00 1014.97 24 1 13.18 
58742 995.00 1014.02 25 1 15.35 
58757 1070.00 1016.68 27 1 17.28 
58772 1114.00 1021.32 29 1 19.22 
58787 1070.00 1023.64 31 1 21.18 
58802 1169.00 1030.56 33 1 23.14 
58817 1090.00 1033.39 36 1 25.11 
58832 1031.00 1033.28 39 1 27.29 
58847 1025.00 1032.88 42 1 29.63 
58862 1080.00 1035.13 45 1 32.11 
58877 1074.00 1036.98 48 1 34.68 
58892 934.00 1032.07 51 1 37.35 
58907 910.00 1026.26 53 1 40.08 
58922 1115.00 1030.49 55 1 42.66 
58937 946.00 1026.46 57 1 45.13 
58952 1030.00 1026.63 59 1 47.50 
58967 980.00 1024.41 61 1 49.80 
58982 989.00 1022.72 63 1 52.04 
58997 1053.00 1024.17 65 1 54.23 
59012 882.00 1017.40 67 1 56.39 
59027 911.00 1012.33 68 1 58.51 
59042 1061.00 1014.65 70 1 60.41 
59057 1038.00 1015.76 72 1 62.33 
59072 1064.00 1018.06 74 1 64.26 
59087 1190.00 1026.24 76 1 66.21 
59102 1041.00 1026.95 78 1 68.17 
59117 1220.00 1036.14 81 1 70.13 
59131 1060.00 1037.28 84 1 72.31 
59146 868.00 1029.22 86 1 74.65 
59161 884.00 1022.30 88 1 76.92 
59176 913.00 1017.10 90 1 79.13 
59191 1126.00 1022.28 92 1 81.31 
59206 1034.00 1022.84 94 1 83.45 
59221 1075.00 1025.32 96 1 85.56 
59236 711.00 1010.36 97 1 87.64 
59251 1004.00 1010.05 98 1 89.52 
59266 1215.00 1019.81 100 1 91.21 
59281 974.00 1017.63 102 1 92.97 
59296 1189.00 1025.79 104 1 94.78 
59311 952.00 1022.28 106 1 96.62 
59326 1199.00 1030.69 109 1 98.50 
59341 1014.00 1029.90 111 1 100.60 
59356 1242.00 1040.00 114 1 102.68 
59371 1083.00 1042.05 117 1 104.94 
59386 1112.00 1045.38 120 1 107.35 
59401 753.00 1031.45 123 1 109.88 
59416 974.00 1028.72 125 1 112.51 
59431 1004.00 1027.54 127 1 115.01 
59446 1175.00 1034.56 130 1 117.40 
59461 737.00 1020.39 132 1 119.92 
59476 773.00 1008.61 133 1 122.34 
59491 1054.00 1010.77 134 1 124.47 
59506 962.00 1008.45 135 1 126.38 
59521 874.00 1002.05 136 1 128.10 
59536 955.00 999.81 137 1 129.68 
59551 899.00 995.01 137 1 131.14 
59566 982.00 994.39 137 1 132.32 
59581 1157.00 1002.13 138 1 133.25 
59596 1119.00 1007.70 139 1 134.20 
59611 1021.00 1008.33 140 1 135.16 
59626 995.00 1007.70 141 1 136.13 
59641 1139.00 1013.95 143 1 137.10 
59655 982.00 1012.43 144 1 138.28 
59670 941.00 1009.03 145 1 139.43 
59685 995.00 1008.36 146 1 140.54 
59700 1043.00 1010.01 147 1 141.63 
59715 752.00 997.72 148 1 142.71 
59730 861.00 991.21 148 1 143.76 
59745 783.00 981.30 148 1 144.61 
59760 952.00 979.90 147 1 145.29 
59775 1140.00 987.52 147 1 145.63 
59790 1001.00 988.17 147 1 145.91 
59805 755.00 977.06 146 1 146.12 
59820 796.00 968.44 145 1 146.10 
59835 971.00 968.56 144 1 145.88 
59850 932.00 966.82 143 1 145.50 
59865 920.00 964.59 142 1 145.00 
59880 917.00 962.33 140 1 144.40 
59895 836.00 956.31 138 1 143.52 
59910 992.00 958.01 136 1 142.42 
59925 844.00 952.58 134 1 141.13 
59940 1229.00 965.74 133 1 139.71 
59955 1257.00 979.61 132 1 138.37 
59970 811.00 971.58 131 1 137.09 
59985 991.00 972.51 130 1 135.87 
60000 966.00 972.20 129 1 134.70 
60015 747.00 961.47 127 1 133.56 
60030 595.00 944.02 124 1 132.25 
60045 954.00 944.50 121 1 130.60 
60060 739.00 934.71 118 1 128.68 
60075 942.00 935.06 115 1 126.54 
60090 942.00 935.39 112 1 124.23 
60105 888.00 933.13 109 1 121.79 
60120 1074.00 939.84 106 1 119.23 
60135 969.00 941.23 103 1 116.58 
60150 1046.00 946.22 100 1 113.87 
60165 948.00 946.30 97 1 111.09 
60180 942.00 946.10 94 1 108.27 
60195 971.00 947.28 92 1 105.42 
60210 884.00 944.27 89 1 102.74 
60225 1028.00 948.26 87 1 99.99 
60240 933.00 947.53 85 1 97.39 
60255 1025.00 951.22 83 1 94.91 
60270 1011.00 954.07 81 1 92.53 
60285 1068.00 959.49 79 1 90.22 
60300 1053.00 963.95 78 1 87.98 
60315 992.00 965.28 77 1 85.98 
60330 1230.00 977.89 76 1 84.19 
60344 814.00 970.08 75 1 82.55 
60359 908.00 967.13 74 1 81.04 
60374 997.00 968.55 73 1 79.63 
60389 836.00 962.24 71 1 78.31 
60404 873.00 957.99 69 1 76.84 
60419 946.00 957.42 67 1 75.28 
60434 777.00 948.83 65 1 73.62 
60449 1059.00 954.07 63 1 71.90 
60464 1081.00 960.12 61 1 70.12 
60479 1176.00 970.40 60 1 68.29 
60494 764.00 960.57 58 1 66.63 
60509 690.00 947.68 56 1 64.91 
60524 881.00 944.51 53 1 63.13 
60539 982.00 946.29 50 1 61.10 
60554 868.00 942.57 47 1 58.88 
60569 896.00 940.35 44 1 56.50 
60584 1124.00 949.09 42 1 54.00 
60599 887.00 946.14 39 1 51.60 
60614 911.00 944.46 36 1 49.08 
60629 1261.00 959.54 34 1 46.47 
60644 939.00 958.56 32 1 43.97 
60659 903.00 955.91 30 1 41.58 
60674 809.00 948.92 28 1 39.26 
60689 1033.00 952.92 26 1 37.01 
60704 918.00 951.26 24 1 34.81 
60719 1043.00 955.63 22 1 32.65 
60734 1167.00 965.69 21 1 30.52 
60749 970.00 965.90 20 1 28.61 
60764 759.00 956.05 18 1 26.89 
60779 817.00 949.42 16 1 25.11 
60794 1211.00 961.88 14 1 23.29 
60809 991.00 963.27 12 1 21.43 
60823 665.00 949.06 10 1 19.55 
found TOS!TTTTTTTTTTTTTTTTTTTTTTTT
60838 972.00 950.16 0 0 17.64 
channel: 88
size: 2
method: 1
Transmission failed or timed out
60901 1019.00 953.43 -1 0 14.11 
60916 933.00 952.46 -2 0 11.09 
60931 1003.00 954.87 -3 0 8.47 
60946 809.00 947.92 -4 0 6.18 
60961 1012.00 950.97 -5 0 4.14 
60976 913.00 949.16 -6 0 2.31 
60991 927.00 948.11 -7 0 0.65 
61006 1082.00 954.49 -8 0 -0.88 
61021 949.00 954.22 -9 0 -2.30 
61036 997.00 956.26 -10 0 -3.64 
61051 993.00 958.01 -11 0 -4.91 
61066 996.00 959.82 -12 0 -6.13 
61081 940.00 958.88 -13 0 -7.31 
61096 1084.00 964.83 -13 0 -8.44 
61111 956.00 964.41 -13 0 -9.36 
61126 912.00 961.92 -14 0 -10.08 
61141 928.00 960.30 -15 0 -10.87 
61156 1021.00 963.19 -16 0 -11.69 
61171 936.00 961.90 -17 0 -12.56 
61186 904.00 959.14 -18 0 -13.44 
61201 1032.00 962.61 -19 0 -14.36 
61216 934.00 961.25 -20 0 -15.28 
61231 879.00 957.33 -21 0 -16.23 
61246 957.00 957.32 -22 0 -17.18 
61261 916.00 955.35 -23 0 -18.15 
61276 989.00 956.95 -24 0 -19.12 
61291 950.00 956.62 -25 0 -20.09 
61306 927.00 955.21 -26 0 -21.07 
61321 1002.00 957.44 -27 0 -22.06 
61336 947.00 956.94 -28 0 -23.05 
61351 964.00 957.28 -29 0 -24.04 
61366 945.00 956.69 -30 0 -25.03 
61381 879.00 952.99 -31 0 -26.02 
61396 927.00 951.75 -32 0 -27.02 
61411 961.00 952.19 -33 0 -28.02 
61426 963.00 952.71 -34 0 -29.01 
61441 964.00 953.25 -35 0 -30.01 
61456 968.00 953.95 -36 0 -31.01 
61471 945.00 953.52 -37 0 -32.01 
61486 982.00 954.88 -38 0 -33.01 
61501 954.00 954.84 -39 0 -34.00 
61516 924.00 953.37 -40 0 -35.00 
61531 999.00 955.54 -41 0 -36.00 
61546 975.00 956.47 -42 0 -37.00 
61561 948.00 956.07 -43 0 -38.00 
61576 973.00 956.87 -44 0 -39.00 
61591 976.00 957.78 -45 0 -40.00 
61606 973.00 958.51 -46 0 -41.00 
61621 938.00 957.53 -47 0 -42.00 
61636 957.00 957.51 -48 0 -43.00 
61651 991.00 959.10 -49 0 -44.00 
61666 952.00 958.76 -50 0 -45.00 
61681 938.00 957.77 -51 0 -46.00 
61696 950.00 957.40 -52 0 -47.00 
61711 918.00 955.53 -53 0 -48.00 
61726 956.00 955.55 -54 0 -49.00 
61741 958.00 955.67 -55 0 -50.00 
61756 958.00 955.78 -56 0 -51.00 
61771 979.00 956.88 -57 0 -52.00 
61786 973.00 957.65 -58 0 -53.00 
61801 965.00 958.00 -59 0 -54.00 
61816 975.00 958.81 -60 0 -55.00 
61831 1024.00 961.91 -61 0 -56.00 
61846 963.00 961.97 -62 0 -57.00 
61861 970.00 962.35 -63 0 -58.00 
61876 900.00 959.38 -64 0 -59.00 
61891 947.00 958.79 -65 0 -60.00 
61906 935.00 957.66 -66 0 -61.00 
61921 906.00 955.20 -67 0 -62.00 
61936 944.00 954.66 -68 0 -63.00 
61951 963.00 955.06 -69 0 -64.00 
61966 989.00 956.68 -70 0 -65.00 
61981 967.00 957.17 -71 0 -66.00 
61996 963.00 957.45 -72 0 -67.00 
62012 944.00 956.81 -73 0 -68.00 
62027 953.00 956.62 -74 0 -69.00 
62042 982.00 957.83 -75 0 -70.00 
62057 951.00 957.51 -76 0 -71.00 
62072 960.00 957.63 -77 0 -72.00 
62087 972.00 958.31 -78 0 -73.00 
62102 920.00 956.49 -79 0 -74.00 
62117 937.00 955.56 -80 0 -75.00 
62132 943.00 954.96 -81 0 -76.00 
62147 964.00 955.39 -82 0 -77.00 
62162 956.00 955.42 -83 0 -78.00 
62177 960.00 955.64 -84 0 -79.00 
62192 978.00 956.70 -85 0 -80.00 
62207 950.00 956.38 -86 0 -81.00 
62222 969.00 956.98 -87 0 -82.00 
62237 931.00 955.75 -88 0 -83.00 
62252 930.00 954.52 -89 0 -84.00 
62267 965.00 955.02 -90 0 -85.00 
62282 939.00 954.26 -91 0 -86.00 
62297 956.00 954.34 -92 0 -87.00 
62312 950.00 954.13 -93 0 -88.00 
62327 949.00 953.89 -94 0 -89.00 
62342 981.00 955.18 -95 0 -90.00 
62357 957.00 955.27 -96 0 -91.00 
62372 952.00 955.11 -97 0 -92.00 
62387 913.00 953.11 -98 0 -93.00 
62402 922.00 951.62 -99 0 -94.00 
62417 935.00 950.83 -100 0 -95.00 
62433 936.00 950.13 -101 0 -96.00 
62448 946.00 949.93 -102 0 -97.00 
62463 934.00 949.17 -103 0 -98.00 
62478 979.00 950.59 -104 0 -99.00 
62493 961.00 951.09 -105 0 -100.00 
62508 952.00 951.13 -106 0 -101.00 
62523 941.00 950.65 -107 0 -102.00 
62538 910.00 948.71 -108 0 -103.00 
62553 964.00 949.44 -109 0 -104.00 
62568 918.00 947.94 -111 0 -105.00 
62583 933.00 947.23 -113 0 -106.20 
62598 883.00 944.17 -115 0 -107.56 
62613 939.00 943.93 -117 0 -109.05 
62628 997.00 946.45 -119 0 -110.64 
62643 932.00 945.77 -121 0 -112.31 
62658 910.00 944.06 -123 0 -114.05 
62673 980.00 945.77 -125 0 -115.84 
62688 978.00 947.31 -127 0 -117.67 
62703 1037.00 951.58 -128 0 -119.54 
62718 830.00 945.79 -130 0 -121.23 
62733 820.00 939.80 -132 0 -122.98 
62748 823.00 934.24 -134 0 -124.79 
62763 935.00 934.27 -136 0 -126.63 
62778 967.00 935.83 -138 0 -128.50 
62793 964.00 937.17 -140 0 -130.40 
62808 986.00 939.50 -142 0 -132.32 
62823 1020.00 943.33 -144 0 -134.26 
62838 969.00 944.55 -146 0 -136.21 
62853 1048.00 949.48 -147 0 -138.17 
62868 925.00 948.32 -148 0 -139.93 
62883 1041.00 952.73 -149 0 -141.55 
62898 937.00 951.98 -150 0 -143.04 
62913 903.00 949.65 -151 0 -144.43 
62928 1049.00 954.38 -152 0 -145.74 
62943 884.00 951.03 -153 0 -146.99 
62958 1051.00 955.79 -154 0 -148.20 
62973 1004.00 958.08 -155 0 -149.36 
62988 1015.00 960.79 -156 0 -150.49 
63003 910.00 958.38 -157 0 -151.59 
63018 1123.00 966.21 -157 0 -152.67 
63033 999.00 967.78 -157 0 -153.54 
63048 1052.00 971.79 -157 0 -154.23 
63063 1021.00 974.13 -157 0 -154.78 
63078 941.00 972.55 -157 0 -155.23 
63093 761.00 962.48 -158 0 -155.58 
63108 943.00 961.55 -159 0 -156.07 
63123 1041.00 965.33 -159 0 -156.65 
63138 888.00 961.65 -160 0 -157.12 
63153 879.00 957.72 -161 0 -157.70 
63168 1093.00 964.16 -162 0 -158.36 
63183 982.00 965.01 -162 0 -159.09 
63198 952.00 964.39 -162 0 -159.67 
63213 934.00 962.94 -163 0 -160.14 
63228 925.00 961.13 -164 0 -160.71 
63243 953.00 960.75 -165 0 -161.37 
63258 913.00 958.47 -166 0 -162.09 
63273 960.00 958.55 -167 0 -162.87 
63288 1126.00 966.52 -167 0 -163.70 
63303 1026.00 969.35 -167 0 -164.36 
63318 1078.00 974.53 -167 0 -164.89 
63333 1039.00 977.60 -167 0 -165.31 
63348 1226.00 989.43 -166 0 -165.65 
63363 967.00 988.36 -165 0 -165.72 
63378 985.00 988.20 -164 0 -165.57 
63393 1006.00 989.05 -163 0 -165.26 
63408 903.00 984.95 -162 0 -164.81 
63423 880.00 979.95 -162 0 -164.25 
63438 1079.00 984.67 -161 0 -163.80 
63453 1011.00 985.92 -160 0 -163.24 
63468 911.00 982.35 -159 0 -162.59 
63483 1039.00 985.05 -158 0 -161.87 
63498 847.00 978.48 -158 0 -161.10 
63513 931.00 976.22 -158 0 -160.48 
63528 1016.00 978.11 -158 0 -159.98 
63543 1096.00 983.72 -157 0 -159.59 
63558 946.00 981.93 -156 0 -159.07 
63573 1058.00 985.55 -155 0 -158.46 
63588 927.00 982.76 -154 0 -157.76 
63603 943.00 980.87 -153 0 -157.01 
63618 1053.00 984.30 -152 0 -156.21 
63633 1030.00 986.48 -151 0 -155.37 
63648 943.00 984.41 -150 0 -154.49 
63663 1060.00 988.01 -149 0 -153.60 
63678 909.00 984.25 -148 0 -152.68 
63693 921.00 981.23 -147 0 -151.74 
63708 971.00 980.75 -146 0 -150.79 
63723 1015.00 982.38 -145 0 -149.83 
63738 1033.00 984.79 -144 0 -148.87 
63753 996.00 985.32 -143 0 -147.89 
63768 903.00 981.40 -142 0 -146.92 
63783 831.00 974.24 -142 0 -145.93 
63798 979.00 974.47 -142 0 -145.15 
63813 807.00 966.49 -142 0 -144.52 
63828 821.00 959.56 -143 0 -144.01 
63843 1058.00 964.25 -144 0 -143.81 
63858 974.00 964.72 -144 0 -143.85 
63873 1106.00 971.44 -144 0 -143.88 
63888 1255.00 984.95 -143 0 -143.90 
63903 1002.00 985.76 -142 0 -143.72 
63918 1046.00 988.63 -141 0 -143.38 
63933 966.00 987.55 -140 0 -142.90 
63948 886.00 982.71 -139 0 -142.32 
63963 923.00 979.87 -139 0 -141.66 
63978 920.00 977.02 -139 0 -141.13 
63993 987.00 977.49 -139 0 -140.70 
64008 946.00 975.99 -139 0 -140.36 
64023 1034.00 978.76 -139 0 -140.09 
64038 1076.00 983.39 -138 0 -139.87 
64053 950.00 981.80 -137 0 -139.50 
64068 1028.00 984.00 -136 0 -139.00 
64083 1036.00 986.47 -135 0 -138.40 
64098 934.00 983.98 -134 0 -137.72 
64113 673.00 969.17 -134 0 -136.97 
64128 998.00 970.54 -134 0 -136.38 
64143 765.00 960.75 -135 0 -135.90 
64158 1059.00 965.43 -135 0 -135.72 
64173 1037.00 968.84 -135 0 -135.58 
64188 808.00 961.18 -136 0 -135.46 
64203 1100.00 967.79 -136 0 -135.57 
64218 976.00 968.18 -136 0 -135.66 
64233 1085.00 973.74 -136 0 -135.72 
64248 1059.00 977.80 -136 0 -135.78 
64263 1104.00 983.81 -135 0 -135.82 
64278 817.00 975.87 -135 0 -135.66 
64293 797.00 967.35 -135 0 -135.53 
64308 1042.00 970.91 -135 0 -135.42 
64323 883.00 966.72 -135 0 -135.34 
64338 1336.00 984.31 -134 0 -135.27 
64353 1078.00 988.77 -133 0 -135.02 
64368 661.00 973.16 -133 0 -134.61 
64383 706.00 960.44 -134 0 -134.29 
64398 948.00 959.85 -135 0 -134.23 
64413 1028.00 963.09 -136 0 -134.39 
64428 1038.00 966.66 -136 0 -134.71 
64443 1108.00 973.39 -136 0 -134.97 
64458 1044.00 976.75 -136 0 -135.17 
64473 1039.00 979.72 -136 0 -135.34 
64488 1042.00 982.68 -135 0 -135.47 
64503 986.00 982.84 -134 0 -135.38 
64518 1198.00 993.08 -133 0 -135.10 
64533 1111.00 998.70 -131 0 -134.68 
64548 1063.00 1001.76 -129 0 -133.94 
64563 990.00 1001.20 -127 0 -132.96 
64578 1004.00 1001.33 -125 0 -131.76 
64593 992.00 1000.89 -123 0 -130.41 
64608 1117.00 1006.42 -121 0 -128.93 
64623 1136.00 1012.59 -118 0 -127.34 
64638 934.00 1008.85 -116 0 -125.47 
64653 1009.00 1008.85 -114 0 -123.58 
64668 912.00 1004.24 -112 0 -121.66 
64683 1065.00 1007.14 -110 0 -119.73 
64698 1010.00 1007.27 -108 0 -117.78 
64713 1160.00 1014.55 -105 0 -115.83 
64728 948.00 1011.38 -102 0 -113.66 
64743 1129.00 1016.98 -99 0 -111.33 
64758 1004.00 1016.36 -96 0 -108.86 
64773 830.00 1007.49 -94 0 -106.29 
64788 1002.00 1007.22 -92 0 -103.83 
64803 881.00 1001.21 -90 0 -101.47 
64818 1051.00 1003.58 -88 0 -99.17 
64833 906.00 998.94 -86 0 -96.94 
64848 877.00 993.13 -85 0 -94.75 
64863 1040.00 995.36 -84 0 -92.80 
64878 1115.00 1001.06 -82 0 -91.04 
64893 1029.00 1002.39 -80 0 -89.23 
64908 1012.00 1002.85 -78 0 -87.39 
64923 1073.00 1006.19 -76 0 -85.51 
64938 1056.00 1008.56 -74 0 -83.61 
64953 1031.00 1009.63 -72 0 -81.69 
64968 1019.00 1010.07 -70 0 -79.75 
64983 1055.00 1012.21 -67 0 -77.80 
64998 1047.00 1013.87 -64 0 -75.64 
65013 1111.00 1018.50 -61 0 -73.31 
65028 1027.00 1018.90 -58 0 -70.85 
65043 972.00 1016.67 -55 0 -68.28 
65058 1047.00 1018.11 -52 0 -65.62 
65073 896.00 1012.30 -49 0 -62.90 
65088 1044.00 1013.81 -46 0 -60.12 
65103 1013.00 1013.77 -43 0 -57.30 
65118 1225.00 1023.83 -40 0 -54.44 
65133 1091.00 1027.03 -36 0 -51.55 
65148 896.00 1020.79 -33 0 -48.44 
65163 878.00 1013.99 -30 0 -45.35 
65178 1195.00 1022.61 -27 0 -42.28 
65193 990.00 1021.05 -24 0 -39.22 
65208 1163.00 1027.81 -20 0 -36.18 
65223 1087.00 1030.63 -16 0 -32.94 
65238 1001.00 1029.22 -12 0 -29.56 
found BOS! BBBBBBBBBBBBBBBBBBBBBBBBB
65253 1108.00 1032.97 0 1 -26.04 
65268 1081.00 1035.26 3 1 -20.84 
65283 1085.00 1037.63 6 1 -16.07 
65298 1043.00 1037.88 9 1 -11.65 
65313 883.00 1030.51 12 1 -7.52 
65328 1478.00 1051.82 16 1 -3.62 
65343 837.00 1041.59 20 1 0.30 
65358 1021.00 1040.61 23 1 4.24 
65373 914.00 1034.58 26 1 8.00 
65388 1087.00 1037.07 29 1 11.60 
65403 893.00 1030.21 32 1 15.08 
65418 1170.00 1036.87 35 1 18.46 
65433 1031.00 1036.59 38 1 21.77 
65448 991.00 1034.42 41 1 25.02 
65463 1015.00 1033.50 44 1 28.21 
65478 974.00 1030.66 47 1 31.37 
65493 1291.00 1043.06 51 1 34.50 
65508 1085.00 1045.06 55 1 37.80 
65523 1081.00 1046.77 59 1 41.24 
65538 1190.00 1053.59 63 1 44.79 
65553 1002.00 1051.13 67 1 48.43 
65568 903.00 1044.08 71 1 52.15 
65583 1055.00 1044.60 75 1 55.92 
65598 1175.00 1050.81 79 1 59.73 
65613 1138.00 1054.96 83 1 63.59 
65628 1012.00 1052.91 87 1 67.47 
65643 1034.00 1052.01 91 1 71.38 
65658 1121.00 1055.30 95 1 75.30 
65673 994.00 1052.38 99 1 79.24 
65688 1008.00 1050.27 103 1 83.19 
65703 1060.00 1050.73 107 1 87.15 
65718 1065.00 1051.41 111 1 91.12 
65733 1032.00 1050.49 115 1 95.10 
65748 1072.00 1051.51 119 1 99.08 
65763 1048.00 1051.34 123 1 103.06 
65778 974.00 1047.66 127 1 107.05 
65793 1007.00 1045.72 131 1 111.04 
65808 1052.00 1046.02 135 1 115.03 
65823 1012.00 1044.40 139 1 119.03 
65838 1021.00 1043.29 143 1 123.02 
65853 1057.00 1043.94 147 1 127.02 
65868 1016.00 1042.61 151 1 131.01 
65883 986.00 1039.91 154 1 135.01 
65898 1087.00 1042.16 158 1 138.81 
65912 1088.00 1044.34 162 1 142.65 
65927 991.00 1041.80 166 1 146.52 
65942 942.00 1037.05 169 1 150.41 
65957 1084.00 1039.28 172 1 154.13 
65972 1000.00 1037.41 175 1 157.70 
65988 992.00 1035.25 178 1 161.16 
66002 1076.00 1037.19 181 1 164.53 
66017 901.00 1030.71 184 1 167.82 
66032 1060.00 1032.10 187 1 171.06 
66047 1088.00 1034.76 190 1 174.25 
66062 1044.00 1035.20 193 1 177.40 
66077 1003.00 1033.67 196 1 180.52 
66092 1055.00 1034.68 199 1 183.61 
66107 960.00 1031.13 202 1 186.69 
66122 975.00 1028.46 205 1 189.75 
66137 1072.00 1030.53 208 1 192.80 
66152 1042.00 1031.07 211 1 195.84 
66167 1061.00 1032.50 214 1 198.87 
66182 1093.00 1035.38 217 1 201.90 
66197 983.00 1032.89 220 1 204.92 
66212 990.00 1030.84 223 1 207.94 
66227 1042.00 1031.38 226 1 210.95 
66242 999.00 1029.83 229 1 213.96 
66257 958.00 1026.41 232 1 216.97 
66272 954.00 1022.96 234 1 219.97 
66287 1054.00 1024.44 236 1 222.78 
66302 1069.00 1026.56 239 1 225.42 
66317 984.00 1024.54 241 1 228.14 
66332 1040.00 1025.27 244 1 230.71 
66347 1197.00 1033.45 247 1 233.37 
66362 1000.00 1031.86 250 1 236.09 
66377 1015.00 1031.06 253 1 238.88 
66392 954.00 1027.39 256 1 241.70 
66407 1006.00 1026.37 259 1 244.56 
66422 978.00 1024.06 261 1 247.45 
66437 1133.00 1029.25 264 1 250.16 
66452 908.00 1023.48 266 1 252.93 
66467 959.00 1020.41 268 1 255.54 
66482 1032.00 1020.96 270 1 258.03 
66497 1002.00 1020.06 272 1 260.43 
66512 948.00 1016.63 274 1 262.74 
66527 1007.00 1016.17 276 1 264.99 
66542 1204.00 1025.11 279 1 267.19 
66557 878.00 1018.11 281 1 269.56 
66572 1048.00 1019.53 283 1 271.84 
66587 983.00 1017.79 285 1 274.08 
66602 1087.00 1021.09 287 1 276.26 
66617 1126.00 1026.08 290 1 278.41 
66632 1056.00 1027.51 293 1 280.73 
66647 1016.00 1026.96 296 1 283.18 
66662 1165.00 1033.53 299 1 285.75 
66677 773.00 1021.13 301 1 288.40 
66692 781.00 1009.69 302 1 290.92 
66707 1005.00 1009.47 303 1 293.13 
66722 1182.00 1017.68 305 1 295.11 
66737 926.00 1013.32 307 1 297.09 
66752 900.00 1007.92 308 1 299.07 
66767 1210.00 1017.54 310 1 300.85 
66781 806.00 1007.47 311 1 302.68 
66796 992.00 1006.73 312 1 304.35 
66811 1297.00 1020.56 314 1 305.88 
66826 1026.00 1020.82 316 1 307.50 
66841 970.00 1018.40 318 1 309.20 
66856 971.00 1016.14 320 1 310.96 
66871 660.00 999.18 321 1 312.77 
66886 1085.00 1003.27 322 1 314.42 
66901 873.00 997.06 323 1 315.93 
66916 1006.00 997.49 324 1 317.35 
66931 865.00 991.18 324 1 318.68 
66946 992.00 991.22 324 1 319.74 
66961 840.00 984.02 324 1 320.59 
66976 897.00 979.87 323 1 321.27 
66991 1042.00 982.83 323 1 321.62 
67006 930.00 980.32 323 1 321.90 
67021 1084.00 985.25 323 1 322.12 
67036 1136.00 992.43 323 1 322.29 
67051 894.00 987.75 323 1 322.43 
67066 882.00 982.71 323 1 322.55 
67081 1035.00 985.20 323 1 322.64 
67096 1111.00 991.19 323 1 322.71 
67111 742.00 979.32 322 1 322.77 
67126 1015.00 981.02 322 1 322.61 
67141 844.00 974.50 321 1 322.49 
67156 1068.00 978.95 320 1 322.19 
67171 1027.00 981.24 320 1 321.75 
67186 899.00 977.32 319 1 321.40 
67201 967.00 976.83 318 1 320.92 
67216 1129.00 984.08 318 1 320.34 
67231 662.00 968.74 317 1 319.87 
67246 1069.00 973.51 316 1 319.30 
67261 896.00 969.82 315 1 318.64 
67276 1149.00 978.36 314 1 317.91 
67291 889.00 974.10 313 1 317.13 
67306 845.00 967.95 312 1 316.30 
67321 922.00 965.76 311 1 315.44 
67336 1179.00 975.92 310 1 314.55 
67351 1178.00 985.54 310 1 313.64 
67366 815.00 977.42 309 1 312.91 
67381 979.00 977.50 308 1 312.13 
67396 822.00 970.09 307 1 311.31 
67411 410.00 943.42 304 1 310.44 
67426 1113.00 951.50 302 1 309.16 
67441 775.00 943.09 299 1 307.72 
67456 854.00 938.85 296 1 305.98 
67471 840.00 934.14 292 1 303.98 
67485 1015.00 937.99 289 1 301.59 
67500 799.00 931.37 285 1 299.07 
67515 992.00 934.26 281 1 296.26 
67530 954.00 935.20 277 1 293.20 
67545 1021.00 939.29 274 1 289.96 
67560 785.00 931.94 270 1 286.77 
67575 974.00 933.94 266 1 283.42 
67590 1120.00 942.80 263 1 279.93 
67605 875.00 939.57 260 1 276.55 
67620 995.00 942.21 257 1 273.24 
67635 773.00 934.15 253 1 269.99 
67650 959.00 935.34 249 1 266.59 
67665 908.00 934.04 245 1 263.07 
67680 775.00 926.46 241 1 259.46 
67695 1033.00 931.54 237 1 255.77 
67710 1079.00 938.56 234 1 252.01 
67725 934.00 938.34 231 1 248.41 
67740 948.00 938.80 228 1 244.93 
67755 820.00 933.14 224 1 241.54 
67770 911.00 932.09 220 1 238.03 
67785 988.00 934.75 216 1 234.43 
67800 1071.00 941.24 213 1 230.74 
67815 943.00 941.32 210 1 227.19 
67830 1028.00 945.45 207 1 223.75 
67845 1048.00 950.33 204 1 220.40 
67860 1105.00 957.70 202 1 217.12 
67875 857.00 952.90 200 1 214.10 
67890 806.00 945.91 197 1 211.28 
67906 1010.00 948.96 194 1 208.42 
67921 1017.00 952.20 192 1 205.54 
67936 764.00 943.24 189 1 202.83 
67950 895.00 940.94 186 1 200.06 
67965 1057.00 946.47 183 1 197.25 
67980 953.00 946.78 180 1 194.40 
67995 743.00 937.08 177 1 191.52 
68010 1062.00 943.02 174 1 188.62 
68025 971.00 944.36 171 1 185.69 
68040 1098.00 951.67 169 1 182.75 
68055 869.00 947.74 166 1 180.00 
68070 973.00 948.94 163 1 177.20 
68085 1062.00 954.32 161 1 174.36 
68100 913.00 952.36 159 1 171.69 
68116 837.00 946.86 156 1 169.15 
68131 1025.00 950.58 153 1 166.52 
68146 1112.00 958.27 151 1 163.82 
68161 841.00 952.69 149 1 161.25 
68175 791.00 944.99 146 1 158.80 
68190 919.00 943.75 143 1 156.24 
68205 948.00 943.95 140 1 153.59 
68220 1042.00 948.62 137 1 150.88 
68235 1015.00 951.78 135 1 148.10 
68250 867.00 947.74 132 1 145.48 
68265 1083.00 954.18 130 1 142.78 
68280 1030.00 957.79 128 1 140.23 
68295 1031.00 961.28 126 1 137.78 
68310 1039.00 964.98 124 1 135.43 
68325 877.00 960.79 122 1 133.14 
68340 949.00 960.23 120 1 130.91 
68355 981.00 961.22 118 1 128.73 
68370 999.00 963.02 116 1 126.58 
68385 992.00 964.40 114 1 124.47 
68400 858.00 959.33 112 1 122.37 
68415 952.00 958.98 110 1 120.30 
68430 1043.00 962.98 108 1 118.24 
68445 959.00 962.79 106 1 116.19 
68460 1015.00 965.28 104 1 114.15 
68475 967.00 965.36 102 1 112.12 
68490 958.00 965.01 100 1 110.10 
68505 965.00 965.01 98 1 108.08 
68520 1041.00 968.63 97 1 106.06 
68535 943.00 967.41 96 1 104.25 
68550 922.00 965.25 94 1 102.60 
68565 900.00 962.14 92 1 100.88 
68580 962.00 962.13 90 1 99.10 
68595 941.00 961.13 88 1 97.28 
68610 957.00 960.93 86 1 95.43 
68625 974.00 961.55 84 1 93.54 
68640 875.00 957.43 82 1 91.63 
68655 997.00 959.32 80 1 89.71 
68670 991.00 960.82 78 1 87.77 
68685 988.00 962.12 76 1 85.81 
68700 969.00 962.45 74 1 83.85 
68715 887.00 958.85 72 1 81.88 
68730 915.00 956.76 70 1 79.90 
68745 881.00 953.16 68 1 77.92 
68760 1014.00 956.05 66 1 75.94 
68775 955.00 956.00 64 1 73.95 
68790 967.00 956.53 62 1 71.96 
68804 989.00 958.07 60 1 69.97 
68820 949.00 957.64 58 1 67.97 
68835 964.00 957.94 56 1 65.98 
68850 910.00 955.66 54 1 63.98 
68865 920.00 953.96 52 1 61.99 
68880 951.00 953.82 50 1 59.99 
68895 956.00 953.93 48 1 57.99 
68910 955.00 953.98 46 1 55.99 
68925 950.00 953.79 44 1 53.99 
68940 963.00 954.23 42 1 52.00 
68955 962.00 954.60 40 1 50.00 
68970 969.00 955.28 38 1 48.00 
68985 988.00 956.84 36 1 46.00 
69000 906.00 954.42 34 1 44.00 
69015 986.00 955.92 32 1 42.00 
69030 961.00 956.16 30 1 40.00 
69045 941.00 955.44 28 1 38.00 
69060 956.00 955.47 26 1 36.00 
69075 976.00 956.45 24 1 34.00 
69090 967.00 956.95 22 1 32.00 
69105 917.00 955.05 20 1 30.00 
69120 974.00 955.95 18 1 28.00 
69135 945.00 955.43 16 1 26.00 
69150 943.00 954.84 14 1 24.00 
69165 961.00 955.13 12 1 22.00 
69180 955.00 955.12 10 1 20.00 
found TOS!TTTTTTTTTTTTTTTTTTTTTTTT
69195 976.00 956.12 0 0 18.00 
channel: 88
size: 2
method: 1
Transmission failed or timed out
69257 978.00 957.16 -1 0 14.40 
69272 934.00 956.06 -2 0 11.32 
69287 939.00 955.24 -3 0 8.66 
69302 930.00 954.04 -4 0 6.32 
69317 950.00 953.85 -5 0 4.26 
69332 926.00 952.52 -6 0 2.41 
69348 975.00 953.59 -7 0 0.73 
69363 955.00 953.66 -8 0 -0.82 
69378 965.00 954.20 -9 0 -2.26 
69393 958.00 954.38 -10 0 -3.60 
69408 969.00 955.08 -11 0 -4.88 
69423 969.00 955.74 -12 0 -6.11 
69438 949.00 955.42 -13 0 -7.29 
69453 984.00 956.78 -14 0 -8.43 
69468 970.00 957.41 -15 0 -9.54 
69483 935.00 956.34 -16 0 -10.63 
69498 957.00 956.37 -17 0 -11.71 
69513 930.00 955.12 -18 0 -12.77 
69528 926.00 953.73 -19 0 -13.81 
69543 937.00 952.94 -20 0 -14.85 
69558 941.00 952.37 -21 0 -15.88 
69574 993.00 954.30 -22 0 -16.90 
69589 956.00 954.38 -23 0 -17.92 
69604 948.00 954.08 -24 0 -18.94 
69619 959.00 954.31 -25 0 -19.95 
69634 963.00 954.73 -26 0 -20.96 
69649 947.00 954.36 -27 0 -21.97 
69664 945.00 953.91 -28 0 -22.97 
69679 951.00 953.77 -29 0 -23.98 
69694 930.00 952.64 -30 0 -24.98 
69709 984.00 954.14 -31 0 -25.99 
69724 921.00 952.56 -32 0 -26.99 
69739 955.00 952.67 -33 0 -27.99 
69754 960.00 953.02 -34 0 -28.99 
69769 958.00 953.26 -35 0 -29.99 
69784 976.00 954.34 -36 0 -31.00 
69799 935.00 953.42 -37 0 -32.00 
69814 950.00 953.26 -38 0 -33.00 
69829 931.00 952.20 -39 0 -34.00 
69844 917.00 950.52 -41 0 -35.00 
69860 971.00 951.50 -42 0 -36.20 
69875 972.00 952.47 -43 0 -37.36 
69890 978.00 953.69 -44 0 -38.49 
69905 972.00 954.56 -45 0 -39.59 
69920 927.00 953.25 -46 0 -40.67 
69935 947.00 952.95 -47 0 -41.74 
69950 963.00 953.43 -48 0 -42.79 
69965 951.00 953.31 -49 0 -43.83 
69980 879.00 949.78 -51 0 -44.87 
69995 987.00 951.55 -52 0 -46.09 
70010 948.00 951.38 -54 0 -47.27 
70025 899.00 948.88 -56 0 -48.62 
70040 921.00 947.56 -58 0 -50.10 
70055 941.00 947.24 -60 0 -51.68 
70070 921.00 945.99 -62 0 -53.34 
70085 910.00 944.28 -64 0 -55.07 
70100 1013.00 947.55 -66 0 -56.86 
70115 886.00 944.62 -68 0 -58.69 
70130 779.00 936.74 -71 0 -60.55 
70145 828.00 931.56 -74 0 -62.64 
70160 863.00 928.29 -77 0 -64.91 
70175 890.00 926.47 -80 0 -67.33 
70190 884.00 924.45 -83 0 -69.86 
70205 997.00 927.90 -86 0 -72.49 
70220 918.00 927.43 -89 0 -75.19 
70235 1043.00 932.93 -92 0 -77.95 
70250 1039.00 937.98 -94 0 -80.76 
70265 1023.00 942.03 -96 0 -83.41 
70280 908.00 940.41 -98 0 -85.93 
70295 937.00 940.25 -100 0 -88.34 
70310 949.00 940.67 -102 0 -90.67 
70325 972.00 942.16 -104 0 -92.94 
70340 1038.00 946.72 -106 0 -95.15 
70355 1069.00 952.55 -107 0 -97.32 
70370 889.00 949.52 -109 0 -99.26 
70385 971.00 950.54 -111 0 -101.21 
70400 914.00 948.80 -113 0 -103.16 
70415 1037.00 953.00 -114 0 -105.13 
70430 955.00 953.10 -115 0 -106.91 
70445 960.00 953.43 -116 0 -108.52 
70460 903.00 951.02 -118 0 -110.02 
70475 967.00 951.79 -119 0 -111.62 
70490 936.00 951.03 -121 0 -113.09 
70505 909.00 949.03 -123 0 -114.67 
70520 1000.00 951.46 -125 0 -116.34 
70535 927.00 950.29 -127 0 -118.07 
70550 953.00 950.42 -129 0 -119.86 
70565 936.00 949.74 -131 0 -121.69 
70580 986.00 951.46 -133 0 -123.55 
70595 1088.00 957.96 -134 0 -125.44 
70610 937.00 956.97 -135 0 -127.15 
70625 1051.00 961.44 -136 0 -128.72 
70640 1006.00 963.57 -137 0 -130.18 
70655 949.00 962.87 -138 0 -131.54 
70670 974.00 963.40 -139 0 -132.83 
70685 943.00 962.43 -140 0 -134.07 
70700 849.00 957.03 -141 0 -135.25 
70715 1070.00 962.41 -142 0 -136.40 
70730 967.00 962.63 -143 0 -137.52 
70745 928.00 960.98 -144 0 -138.62 
70760 1021.00 963.84 -145 0 -139.69 
70775 1023.00 966.65 -145 0 -140.76 
70790 968.00 966.72 -145 0 -141.60 
70805 880.00 962.59 -146 0 -142.28 
70820 937.00 961.37 -147 0 -143.03 
70835 942.00 960.45 -148 0 -143.82 
70850 991.00 961.90 -149 0 -144.66 
70865 1004.00 963.91 -150 0 -145.53 
70880 1044.00 967.72 -150 0 -146.42 
70895 916.00 965.26 -151 0 -147.14 
70910 964.00 965.20 -152 0 -147.91 
70925 1059.00 969.67 -152 0 -148.73 
70940 987.00 970.49 -152 0 -149.38 
70955 1031.00 973.37 -152 0 -149.91 
70970 835.00 966.78 -152 0 -150.32 
70985 1063.00 971.36 -152 0 -150.66 
71000 797.00 963.06 -153 0 -150.93 
71015 869.00 958.58 -154 0 -151.34 
71030 1032.00 962.08 -155 0 -151.87 
71045 1096.00 968.46 -155 0 -152.50 
71060 888.00 964.62 -156 0 -153.00 
71075 1054.00 968.88 -156 0 -153.60 
71090 1048.00 972.65 -156 0 -154.08 
71105 826.00 965.66 -157 0 -154.46 
71120 797.00 957.63 -158 0 -154.97 
71135 1148.00 966.70 -158 0 -155.58 
71150 1039.00 970.14 -158 0 -156.06 
71165 898.00 966.71 -158 0 -156.45 
71180 1066.00 971.43 -158 0 -156.76 
71195 851.00 965.70 -159 0 -157.01 
71210 974.00 966.09 -159 0 -157.41 
71225 885.00 962.23 -160 0 -157.72 
71240 949.00 961.60 -161 0 -158.18 
71255 712.00 949.72 -163 0 -158.74 
71270 1032.00 953.64 -164 0 -159.60 
71285 932.00 952.60 -165 0 -160.48 
71300 1021.00 955.86 -166 0 -161.38 
71315 1095.00 962.49 -167 0 -162.30 
71330 895.00 959.27 -168 0 -163.24 
71345 1112.00 966.55 -168 0 -164.19 
71360 876.00 962.23 -169 0 -164.96 
71375 980.00 963.08 -170 0 -165.76 
71390 939.00 961.93 -171 0 -166.61 
71405 798.00 954.13 -172 0 -167.49 
71420 1090.00 960.60 -173 0 -168.39 
71435 1074.00 966.00 -174 0 -169.31 
71450 1019.00 968.52 -174 0 -170.25 
71465 1020.00 970.97 -174 0 -171.00 
71480 930.00 969.02 -174 0 -171.60 
71495 960.00 968.59 -174 0 -172.08 
71510 1044.00 972.18 -174 0 -172.46 
71525 1138.00 980.08 -173 0 -172.77 
71540 856.00 974.17 -173 0 -172.82 
71555 951.00 973.07 -173 0 -172.85 
71570 1079.00 978.11 -173 0 -172.88 
71585 1008.00 979.54 -173 0 -172.91 
71600 1003.00 980.65 -172 0 -172.93 
71615 1272.00 994.53 -170 0 -172.74 
71630 943.00 992.07 -169 0 -172.19 
71645 1048.00 994.74 -167 0 -171.55 
71660 887.00 989.61 -166 0 -170.64 
71675 1290.00 1003.91 -164 0 -169.71 
71690 884.00 998.20 -162 0 -168.57 
71705 1068.00 1001.52 -160 0 -167.26 
71720 932.00 998.21 -158 0 -165.81 
71735 616.00 980.01 -157 0 -164.24 
71750 1305.00 995.49 -155 0 -162.80 
71765 1203.00 1005.37 -153 0 -161.24 
71780 939.00 1002.21 -151 0 -159.59 
71795 999.00 1002.06 -149 0 -157.87 
71810 1143.00 1008.77 -146 0 -156.10 
71825 1303.00 1022.78 -142 0 -154.08 
71840 1176.00 1030.08 -138 0 -151.66 
71855 1002.00 1028.74 -134 0 -148.93 
71870 875.00 1021.42 -131 0 -145.94 
71885 850.00 1013.25 -128 0 -142.96 
71900 947.00 1010.10 -125 0 -139.96 
71915 961.00 1007.76 -123 0 -136.97 
71930 1174.00 1015.68 -120 0 -134.18 
71945 1072.00 1018.36 -117 0 -131.34 
71960 924.00 1013.87 -114 0 -128.47 
71975 965.00 1011.54 -111 0 -125.58 
71990 991.00 1010.56 -108 0 -122.66 
72005 1189.00 1019.06 -105 0 -119.73 
72020 1088.00 1022.34 -101 0 -116.78 
72035 1165.00 1029.13 -97 0 -113.63 
72050 913.00 1023.60 -93 0 -110.30 
72065 1020.00 1023.43 -89 0 -106.84 
72080 1001.00 1022.36 -85 0 -103.27 
72095 1019.00 1022.20 -81 0 -99.62 
72110 1009.00 1021.58 -78 0 -95.89 
72125 948.00 1018.07 -75 0 -92.32 
72140 984.00 1016.45 -72 0 -88.85 
72155 869.00 1009.43 -69 0 -85.48 
72170 1018.00 1009.84 -66 0 -82.19 
72185 949.00 1006.94 -64 0 -78.95 
72200 1098.00 1011.28 -61 0 -75.96 
72215 1045.00 1012.88 -58 0 -72.97 
72230 968.00 1010.74 -55 0 -69.97 
72245 1102.00 1015.09 -52 0 -66.98 
72260 1013.00 1014.99 -49 0 -63.98 
72275 1128.00 1020.37 -46 0 -60.99 
72290 986.00 1018.73 -43 0 -57.99 
72305 997.00 1017.70 -40 0 -54.99 
72320 1080.00 1020.67 -37 0 -51.99 
72335 984.00 1018.92 -34 0 -48.99 
72350 1098.00 1022.69 -30 0 -46.00 
72365 949.00 1019.18 -27 0 -42.80 
72380 883.00 1012.69 -24 0 -39.64 
72395 868.00 1005.80 -22 0 -36.51 
72410 899.00 1000.72 -20 0 -33.61 
72425 1055.00 1003.30 -18 0 -30.89 
72440 1077.00 1006.81 -16 0 -28.31 
72455 805.00 997.20 -14 0 -25.85 
72470 992.00 996.95 -12 0 -23.48 
72485 948.00 994.62 -10 0 -21.18 
found BOS! BBBBBBBBBBBBBBBBBBBBBBBBB
72500 1002.00 994.97 0 1 -18.95 
72515 1076.00 998.83 1 1 -15.16 
72530 1029.00 1000.27 2 1 -11.93 
72545 947.00 997.73 3 1 -9.14 
72560 1049.00 1000.17 4 1 -6.71 
72575 927.00 996.69 5 1 -4.57 
72590 892.00 991.70 5 1 -2.66 
72605 1095.00 996.62 6 1 -1.12 
72620 859.00 990.07 6 1 0.30 
72635 1010.00 991.02 6 1 1.44 
72650 1510.00 1015.73 8 1 2.35 
72665 164.00 975.17 7 1 3.48 
72680 1248.00 988.16 7 1 4.19 
72695 814.00 979.87 6 1 4.75 
72710 1054.00 983.40 6 1 5.00 
72724 1096.00 988.76 6 1 5.20 
72740 1049.00 991.63 6 1 5.36 
72755 1084.00 996.03 7 1 5.49 
72770 983.00 995.41 8 1 5.79 
72784 1056.00 998.29 9 1 6.23 
72799 956.00 996.28 10 1 6.79 
72814 1039.00 998.31 11 1 7.43 
72829 1041.00 1000.35 12 1 8.14 
72844 1001.00 1000.38 13 1 8.91 
72859 1106.00 1005.41 14 1 9.73 
72874 1024.00 1006.29 15 1 10.59 
72889 1127.00 1012.04 17 1 11.47 
72904 1382.00 1029.66 20 1 12.57 
72919 817.00 1019.53 22 1 14.06 
72934 1082.00 1022.51 25 1 15.65 
72949 1039.00 1023.29 28 1 17.52 
72964 1097.00 1026.80 31 1 19.61 
72979 925.00 1021.95 34 1 21.89 
72994 1115.00 1026.39 37 1 24.31 
73009 1089.00 1029.37 40 1 26.85 
73024 1011.00 1028.49 43 1 29.48 
73039 1029.00 1028.52 46 1 32.18 
73054 1018.00 1028.02 49 1 34.95 
73069 988.00 1026.11 52 1 37.76 
73084 1028.00 1026.20 55 1 40.61 
73099 942.00 1022.19 58 1 43.49 
73114 1069.00 1024.42 61 1 46.39 
73129 1065.00 1026.35 64 1 49.31 
73144 1084.00 1029.10 67 1 52.25 
73159 977.00 1026.62 70 1 55.20 
73174 900.00 1020.59 72 1 58.16 
73189 1083.00 1023.56 75 1 60.93 
73204 1027.00 1023.72 78 1 63.74 
73219 1009.00 1023.02 81 1 66.59 
73234 1039.00 1023.78 84 1 69.47 
73249 1044.00 1024.75 87 1 72.38 
73264 956.00 1021.47 90 1 75.30 
73279 972.00 1019.12 92 1 78.24 
73294 1023.00 1019.30 94 1 80.99 
73309 1042.00 1020.38 96 1 83.60 
73324 1102.00 1024.27 99 1 86.08 
73339 1054.00 1025.68 102 1 88.66 
73353 1087.00 1028.60 105 1 91.33 
73368 1012.00 1027.81 108 1 94.06 
73383 884.00 1020.97 111 1 96.85 
73398 1030.00 1021.40 114 1 99.68 
73413 1004.00 1020.57 116 1 102.54 
73428 1005.00 1019.83 118 1 105.24 
73443 986.00 1018.22 120 1 107.79 
73458 1079.00 1021.11 123 1 110.23 
73473 995.00 1019.87 125 1 112.78 
73488 1076.00 1022.54 128 1 115.23 
73503 903.00 1016.85 130 1 117.78 
73518 1072.00 1019.47 132 1 120.23 
73533 982.00 1017.69 134 1 122.58 
73548 998.00 1016.75 136 1 124.86 
73563 1133.00 1022.29 139 1 127.09 
73578 1107.00 1026.32 142 1 129.47 
73593 1090.00 1029.35 145 1 131.98 
73608 1033.00 1029.53 148 1 134.58 
73623 979.00 1027.12 151 1 137.27 
73638 869.00 1019.59 153 1 140.01 
73653 1076.00 1022.28 156 1 142.61 
73668 1037.00 1022.98 159 1 145.29 
73683 1003.00 1022.03 162 1 148.03 
73698 1065.00 1024.07 165 1 150.82 
73713 1032.00 1024.45 168 1 153.66 
73728 925.00 1019.72 170 1 156.53 
73743 1048.00 1021.06 173 1 159.22 
73758 983.00 1019.25 175 1 161.98 
73773 983.00 1017.52 177 1 164.58 
73788 1048.00 1018.97 179 1 167.07 
73803 953.00 1015.83 181 1 169.45 
73818 1045.00 1017.22 183 1 171.76 
73833 1051.00 1018.83 185 1 174.01 
73848 949.00 1015.51 187 1 176.21 
73863 971.00 1013.39 189 1 178.37 
73878 1008.00 1013.13 191 1 180.49 
73893 964.00 1010.79 193 1 182.59 
73908 1050.00 1012.66 195 1 184.68 
73923 1053.00 1014.58 197 1 186.74 
73938 791.00 1003.93 198 1 188.79 
73953 1028.00 1005.08 199 1 190.63 
73968 936.00 1001.79 200 1 192.31 
73983 1128.00 1007.80 202 1 193.85 
73998 1038.00 1009.24 204 1 195.48 
74013 762.00 997.46 205 1 197.18 
74028 1143.00 1004.39 206 1 198.74 
74042 917.00 1000.23 207 1 200.20 
74057 1082.00 1004.13 208 1 201.56 
74072 977.00 1002.83 209 1 202.85 
74087 1096.00 1007.27 211 1 204.08 
74102 1260.00 1019.31 213 1 205.46 
74117 943.00 1015.67 215 1 206.97 
74132 1153.00 1022.21 218 1 208.58 
74147 825.00 1012.82 220 1 210.46 
74162 1008.00 1012.59 222 1 212.37 
74177 1024.00 1013.13 224 1 214.29 
74192 868.00 1006.22 225 1 216.24 
74207 1290.00 1019.74 227 1 217.99 
74222 1040.00 1020.70 230 1 219.79 
74237 972.00 1018.38 232 1 221.83 
74252 1081.00 1021.36 235 1 223.87 
74267 1193.00 1029.54 238 1 226.09 
74282 939.00 1025.23 241 1 228.47 
74297 893.00 1018.93 243 1 230.98 
74312 834.00 1010.12 245 1 233.38 
74327 1067.00 1012.83 247 1 235.71 
74342 1078.00 1015.93 249 1 237.97 
74357 1054.00 1017.75 251 1 240.17 
74372 872.00 1010.81 253 1 242.34 
74387 963.00 1008.53 255 1 244.47 
74402 969.00 1006.65 256 1 246.58 
74417 879.00 1000.57 257 1 248.46 
74432 1020.00 1001.49 258 1 250.17 
74447 858.00 994.66 259 1 251.74 
74462 1199.00 1004.39 260 1 253.19 
74477 901.00 999.47 261 1 254.55 
74492 1060.00 1002.35 262 1 255.84 
74507 1057.00 1004.95 263 1 257.07 
74522 730.00 991.86 263 1 258.26 
74537 896.00 987.30 263 1 259.21 
74552 1020.00 988.85 263 1 259.97 
74567 1058.00 992.15 263 1 260.57 
74582 1042.00 994.52 264 1 261.06 
74597 794.00 984.97 264 1 261.65 
74612 1269.00 998.50 265 1 262.12 
74627 1174.00 1006.85 267 1 262.69 
74642 895.00 1001.53 268 1 263.55 
74657 1170.00 1009.55 270 1 264.44 
74672 1091.00 1013.43 272 1 265.56 
74687 834.00 1004.88 273 1 266.84 
74702 591.00 985.18 273 1 268.08 
74717 1057.00 988.60 273 1 269.06 
74732 835.00 981.28 273 1 269.85 
74747 994.00 981.89 273 1 270.48 
74762 852.00 975.70 272 1 270.98 
74777 1273.00 989.86 272 1 271.19 
74792 781.00 979.91 271 1 271.35 
74807 1015.00 981.58 271 1 271.28 
74822 883.00 976.89 270 1 271.22 
74837 868.00 971.70 269 1 270.98 
74852 1031.00 974.53 268 1 270.58 
74867 837.00 967.98 267 1 270.07 
74882 816.00 960.74 265 1 269.45 
74897 883.00 957.04 263 1 268.56 
74912 696.00 944.61 260 1 267.45 
74927 902.00 942.58 257 1 265.96 
74942 1061.00 948.22 254 1 264.17 
74957 980.00 949.73 251 1 262.13 
74972 821.00 943.60 248 1 259.91 
74987 997.00 946.15 245 1 257.53 
75002 1095.00 953.23 242 1 255.02 
75017 1062.00 958.41 240 1 252.42 
75032 1055.00 963.01 238 1 249.93 
75047 1121.00 970.54 237 1 247.55 
75062 991.00 971.51 236 1 245.44 
75077 920.00 969.06 235 1 243.55 
75092 940.00 967.67 234 1 241.84 
75107 1012.00 969.78 233 1 240.27 
75122 847.00 963.94 231 1 238.82 
75137 969.00 964.18 229 1 237.25 
75152 961.00 964.03 227 1 235.60 
75167 866.00 959.36 225 1 233.88 
75181 938.00 958.34 223 1 232.11 
75196 921.00 956.56 221 1 230.28 
75211 1109.00 963.82 219 1 228.43 
75226 1078.00 969.26 218 1 226.54 
75241 1051.00 973.15 217 1 224.83 
75256 915.00 970.38 216 1 223.27 
75271 995.00 971.56 215 1 221.81 
75286 1023.00 974.01 214 1 220.45 
75301 1016.00 976.01 213 1 219.16 
75316 915.00 973.10 212 1 217.93 
75331 909.00 970.05 211 1 216.74 
75346 1049.00 973.81 210 1 215.59 
75361 1089.00 979.29 209 1 214.48 
75376 974.00 979.04 208 1 213.38 
75391 1040.00 981.94 208 1 212.30 
75406 944.00 980.14 208 1 211.44 
75421 1003.00 981.23 208 1 210.75 
75436 950.00 979.74 207 1 210.20 
75451 836.00 972.89 206 1 209.56 
75466 933.00 970.99 205 1 208.85 
75481 854.00 965.42 203 1 208.08 
75496 917.00 963.12 201 1 207.06 
75511 1067.00 968.06 200 1 205.85 
75526 794.00 959.78 198 1 204.68 
75541 897.00 956.79 196 1 203.34 
75556 945.00 956.22 194 1 201.88 
75571 1126.00 964.31 192 1 200.30 
75586 1088.00 970.20 191 1 198.64 
75601 902.00 966.95 190 1 197.11 
75616 966.00 966.91 189 1 195.69 
75631 1094.00 972.96 188 1 194.35 
75646 982.00 973.39 187 1 193.08 
75661 960.00 972.75 186 1 191.87 
75676 1029.00 975.43 185 1 190.69 
75691 1025.00 977.79 184 1 189.55 
75706 916.00 974.85 183 1 188.44 
75721 847.00 968.76 182 1 187.35 
75736 841.00 962.68 180 1 186.28 
75751 852.00 957.41 178 1 185.03 
75766 904.00 954.86 176 1 183.62 
75781 1014.00 957.68 174 1 182.10 
75796 1019.00 960.60 172 1 180.48 
75811 1002.00 962.57 170 1 178.78 
75826 923.00 960.69 168 1 177.03 
75841 906.00 958.08 166 1 175.22 
75856 919.00 956.22 164 1 173.38 
75871 953.00 956.07 162 1 171.50 
75886 850.00 951.02 159 1 169.60 
75901 960.00 951.44 156 1 167.48 
75916 979.00 952.76 153 1 165.18 
75931 990.00 954.53 151 1 162.75 
75946 955.00 954.55 149 1 160.40 
75961 997.00 956.57 147 1 158.12 
75976 1004.00 958.83 145 1 155.89 
75991 959.00 958.84 143 1 153.72 
76006 891.00 955.61 141 1 151.57 
76021 1004.00 957.91 139 1 149.46 
76036 1025.00 961.11 137 1 147.37 
76051 904.00 958.39 135 1 145.29 
76066 963.00 958.61 133 1 143.23 
76081 967.00 959.01 131 1 141.19 
76096 960.00 959.06 129 1 139.15 
76111 1009.00 961.43 127 1 137.12 
76126 988.00 962.70 125 1 135.10 
76141 983.00 963.67 123 1 133.08 
76156 969.00 963.92 121 1 131.06 
76171 977.00 964.54 119 1 129.05 
76186 937.00 963.23 117 1 127.04 
76201 923.00 961.32 115 1 125.03 
76216 940.00 960.30 113 1 123.03 
76231 930.00 958.86 111 1 121.02 
76246 920.00 957.01 109 1 119.02 
76261 933.00 955.86 107 1 117.01 
76276 914.00 953.87 105 1 115.01 
76291 931.00 952.78 102 1 113.01 
76306 896.00 950.08 99 1 110.81 
76321 955.00 950.31 96 1 108.45 
76336 948.00 950.20 93 1 105.96 
76351 975.00 951.38 90 1 103.36 
76366 979.00 952.70 87 1 100.69 
76381 992.00 954.57 85 1 97.95 
76396 929.00 953.35 82 1 95.36 
76411 935.00 952.48 79 1 92.69 
76426 952.00 952.45 76 1 89.95 
76441 935.00 951.62 73 1 87.16 
76456 909.00 949.59 70 1 84.33 
76471 995.00 951.76 67 1 81.46 
76486 930.00 950.72 64 1 78.57 
76501 932.00 949.83 61 1 75.66 
76516 935.00 949.12 58 1 72.73 
76531 917.00 947.59 55 1 69.78 
76546 1010.00 950.56 52 1 66.82 
76561 944.00 950.25 49 1 63.86 
76576 969.00 951.14 46 1 60.89 
76591 972.00 952.14 43 1 57.91 
76606 990.00 953.94 41 1 54.93 
76621 969.00 954.66 39 1 52.14 
76636 967.00 955.25 37 1 49.51 
76651 989.00 956.85 35 1 47.01 
76666 955.00 956.76 33 1 44.61 
76681 952.00 956.54 31 1 42.29 
76696 902.00 953.94 29 1 40.03 
76711 952.00 953.85 26 1 37.82 
76726 923.00 952.38 23 1 35.46 
76741 964.00 952.93 20 1 32.97 
76756 966.00 953.56 17 1 30.37 
76771 966.00 954.15 15 1 27.70 
76786 957.00 954.28 13 1 25.16 
76801 946.00 953.89 10 1 22.73 
found TOS!TTTTTTTTTTTTTTTTTTTTTTTT
76816 960.00 954.18 0 0 20.18 
channel: 88
size: 2
method: 1
Transmission failed or timed out
76879 955.00 954.22 -1 0 16.15 
76894 937.00 953.40 -3 0 12.72 
76909 959.00 953.67 -5 0 9.57 
76924 933.00 952.68 -7 0 6.66 
76939 927.00 951.46 -9 0 3.93 
76954 943.00 951.06 -11 0 1.34 
76969 955.00 951.24 -13 0 -1.13 
76984 969.00 952.09 -15 0 -3.50 
76999 986.00 953.70 -17 0 -5.80 
77014 950.00 953.53 -19 0 -8.04 
77029 952.00 953.46 -21 0 -10.23 
77045 931.00 952.39 -23 0 -12.39 
77060 931.00 951.37 -25 0 -14.51 
77075 947.00 951.16 -27 0 -16.61 
77090 967.00 951.91 -29 0 -18.69 
77105 933.00 951.01 -31 0 -20.75 
77120 983.00 952.54 -33 0 -22.80 
77135 922.00 951.08 -35 0 -24.84 
77150 982.00 952.55 -37 0 -26.87 
77165 955.00 952.67 -39 0 -28.90 
77180 929.00 951.54 -41 0 -30.92 
77195 966.00 952.23 -43 0 -32.93 
77210 965.00 952.84 -45 0 -34.95 
77225 925.00 951.51 -47 0 -36.96 
77240 930.00 950.49 -49 0 -38.97 
77255 897.00 947.94 -51 0 -40.97 
77270 989.00 949.90 -53 0 -42.98 
77285 944.00 949.62 -55 0 -44.98 
77300 967.00 950.44 -57 0 -46.99 
77315 935.00 949.71 -59 0 -48.99 
77330 944.00 949.44 -61 0 -50.99 
77345 996.00 951.65 -63 0 -52.99 
77360 944.00 951.29 -65 0 -54.99 
77375 874.00 947.61 -67 0 -57.00 
77390 924.00 946.49 -69 0 -59.00 
77405 1053.00 951.56 -71 0 -61.00 
77420 993.00 953.53 -73 0 -63.00 
77435 970.00 954.32 -74 0 -65.00 
77450 948.00 954.01 -76 0 -66.80 
77465 962.00 954.39 -77 0 -68.64 
77480 1079.00 960.33 -78 0 -70.31 
77495 806.00 952.98 -80 0 -71.85 
77510 913.00 951.08 -82 0 -73.48 
77525 857.00 946.60 -84 0 -75.18 
77540 1061.00 952.04 -86 0 -76.95 
77556 972.00 952.99 -88 0 -78.76 
77570 872.00 949.14 -90 0 -80.61 
77585 1077.00 955.23 -91 0 -82.48 
77600 901.00 952.64 -93 0 -84.19 
77615 1000.00 954.90 -94 0 -85.95 
77630 948.00 954.57 -95 0 -87.56 
77645 954.00 954.54 -96 0 -89.05 
77660 1065.00 959.80 -97 0 -90.44 
77675 966.00 960.10 -98 0 -91.75 
77690 972.00 960.66 -99 0 -93.00 
77705 996.00 962.35 -100 0 -94.20 
77720 908.00 959.76 -101 0 -95.36 
77735 1001.00 961.72 -102 0 -96.49 
77750 1038.00 965.36 -103 0 -97.59 
77765 905.00 962.48 -104 0 -98.67 
77780 985.00 963.55 -105 0 -99.74 
77795 878.00 959.48 -106 0 -100.79 
77810 1065.00 964.50 -107 0 -101.83 
77825 1057.00 968.91 -107 0 -102.87 
77840 924.00 966.77 -108 0 -103.69 
77855 1033.00 969.92 -108 0 -104.55 
77870 1028.00 972.69 -108 0 -105.24 
77885 935.00 970.90 -108 0 -105.79 
77900 835.00 964.42 -109 0 -106.24 
77915 973.00 964.83 -110 0 -106.79 
77930 958.00 964.51 -111 0 -107.43 
77945 937.00 963.20 -112 0 -108.14 
77960 956.00 962.85 -113 0 -108.92 
77975 1029.00 966.00 -114 0 -109.73 
77990 891.00 962.43 -115 0 -110.59 
78005 1049.00 966.55 -116 0 -111.47 
78020 876.00 962.24 -117 0 -112.38 
78035 1062.00 966.99 -118 0 -113.30 
78050 989.00 968.04 -118 0 -114.24 
78065 971.00 968.18 -118 0 -114.99 
78080 1013.00 970.32 -118 0 -115.59 
78095 815.00 962.92 -119 0 -116.07 
78110 911.00 960.45 -120 0 -116.66 
78125 949.00 959.90 -121 0 -117.33 
78140 930.00 958.48 -122 0 -118.06 
78155 956.00 958.36 -123 0 -118.85 
78170 991.00 959.91 -124 0 -119.68 
78185 1041.00 963.78 -125 0 -120.54 
78200 860.00 958.83 -126 0 -121.44 
78215 988.00 960.22 -127 0 -122.35 
78230 1006.00 962.40 -128 0 -123.28 
78245 1072.00 967.62 -128 0 -124.22 
78260 992.00 968.78 -128 0 -124.98 
78275 937.00 967.27 -128 0 -125.58 
78290 885.00 963.35 -129 0 -126.07 
78305 1022.00 966.14 -130 0 -126.65 
78320 1205.00 977.52 -130 0 -127.32 
78335 840.00 970.97 -130 0 -127.86 
78350 910.00 968.07 -130 0 -128.29 
78365 915.00 965.54 -131 0 -128.63 
78380 982.00 966.32 -132 0 -129.10 
78395 770.00 956.97 -133 0 -129.68 
78410 823.00 950.60 -135 0 -130.35 
78425 963.00 951.19 -137 0 -131.28 
78440 962.00 951.70 -139 0 -132.42 
78455 931.00 950.72 -141 0 -133.74 
78470 817.00 944.35 -143 0 -135.19 
78485 993.00 946.66 -145 0 -136.75 
78500 1041.00 951.16 -147 0 -138.40 
78515 1076.00 957.10 -148 0 -140.12 
78530 993.00 958.81 -149 0 -141.70 
78545 973.00 959.49 -150 0 -143.16 
78560 952.00 959.13 -151 0 -144.53 
78575 774.00 950.31 -153 0 -145.82 
78590 997.00 952.54 -155 0 -147.26 
78605 926.00 951.27 -157 0 -148.81 
78620 986.00 952.93 -159 0 -150.44 
78635 856.00 948.31 -161 0 -152.16 
78650 911.00 946.54 -163 0 -153.92 
78665 822.00 940.60 -166 0 -155.74 
78680 937.00 940.43 -169 0 -157.79 
78695 983.00 942.46 -171 0 -160.03 
78710 970.00 943.77 -173 0 -162.23 
78725 1052.00 948.93 -175 0 -164.38 
78740 785.00 941.12 -178 0 -166.51 
78755 1164.00 951.73 -180 0 -168.80 
78770 880.00 948.32 -182 0 -171.04 
78785 1138.00 957.35 -183 0 -173.23 
78800 1017.00 960.19 -184 0 -175.19 
78815 983.00 961.28 -185 0 -176.95 
78830 1139.00 969.74 -185 0 -178.56 
78845 922.00 967.47 -185 0 -179.85 
78860 1029.00 970.40 -185 0 -180.88 
78875 909.00 967.47 -185 0 -181.70 
78890 1005.00 969.26 -185 0 -182.36 
78905 965.00 969.06 -185 0 -182.89 
78920 864.00 964.05 -186 0 -183.31 
78935 1119.00 971.43 -186 0 -183.85 
78950 846.00 965.46 -187 0 -184.28 
78965 804.00 957.77 -188 0 -184.82 
78980 936.00 956.73 -189 0 -185.46 
78995 957.00 956.75 -190 0 -186.17 
79010 1121.00 964.57 -191 0 -186.93 
79025 1263.00 978.78 -191 0 -187.75 
79040 1030.00 981.22 -190 0 -188.40 
79055 895.00 977.11 -190 0 -188.72 
79070 1014.00 978.87 -190 0 -188.97 
79085 1082.00 983.78 -189 0 -189.18 
79100 588.00 964.93 -190 0 -189.14 
79115 903.00 961.98 -191 0 -189.31 
79130 1216.00 974.08 -191 0 -189.65 
79145 704.00 961.22 -192 0 -189.92 
79160 961.00 961.21 -193 0 -190.34 
79175 628.00 945.34 -195 0 -190.87 
79190 1114.00 953.37 -197 0 -191.70 
79205 1159.00 963.17 -198 0 -192.76 
79220 1105.00 969.92 -198 0 -193.81 
79235 1040.00 973.26 -198 0 -194.64 
79250 1118.00 980.15 -197 0 -195.32 
79265 1222.00 991.67 -196 0 -195.65 
79280 1020.00 993.01 -194 0 -195.72 
79295 992.00 992.97 -192 0 -195.38 
79310 954.00 991.11 -191 0 -194.70 
79325 980.00 990.58 -190 0 -193.96 
79340 1066.00 994.17 -188 0 -193.17 
79355 1007.00 994.78 -186 0 -192.14 
79370 1052.00 997.51 -184 0 -190.91 
79385 1069.00 1000.91 -182 0 -189.53 
79400 1098.00 1005.54 -179 0 -188.02 
79415 1098.00 1009.94 -176 0 -186.22 
79430 1138.00 1016.04 -173 0 -184.17 
79445 1093.00 1019.70 -169 0 -181.94 
79460 1095.00 1023.29 -165 0 -179.35 
79475 1081.00 1026.04 -161 0 -176.48 
79490 772.00 1013.94 -158 0 -173.38 
79505 1018.00 1014.13 -155 0 -170.31 
79520 1096.00 1018.03 -151 0 -167.25 
79535 1054.00 1019.74 -147 0 -164.00 
79550 1043.00 1020.85 -143 0 -160.60 
79565 1108.00 1025.00 -139 0 -157.08 
79580 944.00 1021.14 -135 0 -153.46 
79595 1059.00 1022.95 -131 0 -149.77 
79610 925.00 1018.28 -127 0 -146.02 
79625 992.00 1017.03 -124 0 -142.21 
79640 1173.00 1024.46 -120 0 -138.57 
79655 1094.00 1027.77 -116 0 -134.86 
79670 997.00 1026.30 -112 0 -131.08 
79685 922.00 1021.34 -108 0 -127.27 
79700 1125.00 1026.27 -104 0 -123.41 
79715 1118.00 1030.64 -99 0 -119.53 
79730 953.00 1026.94 -95 0 -115.43 
79745 980.00 1024.71 -91 0 -111.34 
79760 1033.00 1025.10 -87 0 -107.27 
79775 1023.00 1025.00 -83 0 -103.22 
79790 967.00 1022.24 -79 0 -99.17 
79805 1062.00 1024.13 -75 0 -95.14 
79820 1001.00 1023.03 -71 0 -91.11 
79835 988.00 1021.36 -67 0 -87.09 
79850 1037.00 1022.11 -63 0 -83.07 
79865 983.00 1020.25 -59 0 -79.06 
79880 1243.00 1030.85 -54 0 -75.05 
79895 895.00 1024.39 -50 0 -70.84 
79910 944.00 1020.56 -46 0 -66.67 
79925 1016.00 1020.34 -42 0 -62.54 
79940 786.00 1009.18 -39 0 -58.43 
79955 977.00 1007.65 -36 0 -54.54 
79970 1236.00 1018.52 -32 0 -50.83 
79985 962.00 1015.83 -29 0 -47.07 
80000 1189.00 1024.08 -25 0 -43.45 
80015 1058.00 1025.69 -21 0 -39.76 
80030 1031.00 1025.95 -17 0 -36.01 
80045 1024.00 1025.85 -13 0 -32.21 
found BOS! BBBBBBBBBBBBBBBBBBBBBBBBB
80060 939.00 1021.72 0 1 -28.37 
80075 1043.00 1022.73 3 1 -22.69 
80090 1019.00 1022.55 6 1 -17.55 
80105 1013.00 1022.10 9 1 -12.84 
80120 982.00 1020.19 12 1 -8.47 
80135 1059.00 1022.04 15 1 -4.38 
80150 1029.00 1022.37 18 1 -0.50 
80165 988.00 1020.73 21 1 3.20 
80180 1035.00 1021.41 24 1 6.76 
80195 1110.00 1025.63 27 1 10.21 
80210 848.00 1017.17 29 1 13.56 
80225 1295.00 1030.40 33 1 16.65 
80240 1005.00 1029.19 36 1 19.92 
80255 1086.00 1031.90 40 1 23.14 
80270 1119.00 1036.04 44 1 26.51 
80285 904.00 1029.76 47 1 30.01 
80300 1034.00 1029.96 51 1 33.41 
80315 1041.00 1030.48 55 1 36.92 
80330 1051.00 1031.46 59 1 40.54 
80345 1092.00 1034.34 63 1 44.23 
80360 1122.00 1038.52 67 1 47.99 
80375 1067.00 1039.87 71 1 51.79 
80390 991.00 1037.55 75 1 55.63 
80405 1065.00 1038.85 79 1 59.50 
80420 1153.00 1044.29 84 1 63.40 
80435 1030.00 1043.61 89 1 67.52 
80450 1032.00 1043.06 94 1 71.82 
80465 1009.00 1041.43 98 1 76.25 
80480 1013.00 1040.08 102 1 80.60 
80495 954.00 1035.98 106 1 84.88 
80510 1026.00 1035.51 110 1 89.11 
80525 991.00 1033.39 114 1 93.29 
80540 998.00 1031.70 118 1 97.43 
80555 1050.00 1032.57 122 1 101.54 
80570 1086.00 1035.12 126 1 105.63 
80585 1028.00 1034.78 130 1 109.71 
80600 981.00 1032.22 134 1 113.77 
80615 1011.00 1031.21 138 1 117.81 
80630 1125.00 1035.67 142 1 121.85 
80645 915.00 1029.93 146 1 125.88 
80660 1025.00 1029.69 150 1 129.90 
80675 1118.00 1033.90 154 1 133.92 
80690 962.00 1030.47 158 1 137.94 
80705 1117.00 1034.59 162 1 141.95 
80720 1096.00 1037.52 166 1 145.96 
80735 962.00 1033.92 170 1 149.97 
80750 1026.00 1033.55 174 1 153.97 
80765 1037.00 1033.71 178 1 157.98 
80780 1008.00 1032.49 182 1 161.98 
80795 987.00 1030.32 186 1 165.99 
80810 1018.00 1029.73 190 1 169.99 
80825 954.00 1026.13 193 1 173.99 
80840 1009.00 1025.31 196 1 177.79 
80855 1007.00 1024.44 199 1 181.43 
80870 1020.00 1024.23 202 1 184.95 
80885 960.00 1021.17 205 1 188.36 
80900 1001.00 1020.21 208 1 191.69 
80915 993.00 1018.91 211 1 194.95 
80930 1112.00 1023.35 214 1 198.16 
80945 1093.00 1026.66 217 1 201.33 
80960 1002.00 1025.49 220 1 204.46 
80975 989.00 1023.75 223 1 207.57 
80990 1010.00 1023.10 226 1 210.66 
81005 1048.00 1024.28 229 1 213.72 
81020 1049.00 1025.46 232 1 216.78 
81034 1168.00 1032.25 236 1 219.82 
81049 966.00 1029.09 239 1 223.06 
81064 976.00 1026.56 242 1 226.25 
81079 908.00 1020.92 245 1 229.40 
81094 1031.00 1021.40 248 1 232.52 
81109 1024.00 1021.52 251 1 235.61 
81125 978.00 1019.45 254 1 238.69 
81139 1002.00 1018.62 257 1 241.75 
81154 969.00 1016.26 259 1 244.80 
81169 930.00 1012.15 261 1 247.64 
81184 989.00 1011.05 263 1 250.31 
81199 1011.00 1011.04 265 1 252.85 
81214 1095.00 1015.04 267 1 255.28 
81229 927.00 1010.85 269 1 257.62 
81244 1081.00 1014.19 271 1 259.90 
81259 1091.00 1017.85 274 1 262.12 
81274 951.00 1014.66 276 1 264.50 
81289 970.00 1012.54 278 1 266.80 
81304 1068.00 1015.18 280 1 269.04 
81319 905.00 1009.93 282 1 271.23 
81334 1075.00 1013.03 284 1 273.38 
81349 977.00 1011.31 286 1 275.51 
81364 1008.00 1011.16 288 1 277.61 
81379 1015.00 1011.34 290 1 279.68 
81394 985.00 1010.09 292 1 281.75 
81409 776.00 998.94 293 1 283.80 
81424 1262.00 1011.47 295 1 285.64 
81439 1048.00 1013.21 297 1 287.51 
81454 1215.00 1022.81 300 1 289.41 
81469 1173.00 1029.97 304 1 291.53 
81484 999.00 1028.49 307 1 294.02 
81499 902.00 1022.47 310 1 296.62 
81514 1164.00 1029.21 314 1 299.29 
81529 1085.00 1031.86 318 1 302.24 
81544 1165.00 1038.20 322 1 305.39 
81559 935.00 1033.29 326 1 308.71 
81574 1022.00 1032.75 330 1 312.17 
81589 808.00 1022.05 333 1 315.73 
81604 1014.00 1021.67 336 1 319.19 
81619 969.00 1019.16 339 1 322.55 
81634 950.00 1015.87 341 1 325.84 
81649 835.00 1007.25 343 1 328.87 
81664 881.00 1001.24 344 1 331.70 
81679 952.00 998.90 345 1 334.16 
81694 903.00 994.33 346 1 336.33 
81709 827.00 986.36 346 1 338.26 
81724 934.00 983.87 346 1 339.81 
81739 899.00 979.83 345 1 341.05 
81754 910.00 976.50 344 1 341.84 
81769 905.00 973.10 343 1 342.27 
81784 994.00 974.09 342 1 342.42 
81799 1000.00 975.33 341 1 342.33 
81814 973.00 975.21 340 1 342.07 
81829 993.00 976.06 339 1 341.65 
81844 852.00 970.15 338 1 341.12 
81859 772.00 960.72 336 1 340.50 
81873 952.00 960.30 334 1 339.60 
81888 1255.00 974.34 333 1 338.48 
81903 1062.00 978.51 332 1 337.38 
81918 956.00 977.44 331 1 336.31 
81933 797.00 968.85 330 1 335.25 
81948 840.00 962.71 328 1 334.20 
81963 900.00 959.72 326 1 332.96 
81978 905.00 957.12 324 1 331.57 
81993 913.00 955.02 321 1 330.05 
82008 1062.00 960.11 319 1 328.24 
82023 924.00 958.39 317 1 326.39 
82038 829.00 952.23 314 1 324.51 
82053 1086.00 958.60 312 1 322.41 
82069 1267.00 973.29 311 1 320.33 
82083 802.00 965.13 309 1 318.46 
82098 1014.00 967.46 307 1 316.57 
82113 609.00 950.39 304 1 314.66 
82128 1081.00 956.61 302 1 312.53 
82143 843.00 951.20 299 1 310.42 
82158 795.00 943.76 296 1 308.14 
82173 894.00 941.39 292 1 305.71 
82188 1458.00 965.99 290 1 302.97 
82203 863.00 961.09 288 1 300.37 
82218 1290.00 976.75 287 1 297.90 
82233 685.00 962.86 285 1 295.72 
82248 1065.00 967.72 283 1 293.58 
82263 835.00 961.40 281 1 291.46 
82278 1200.00 972.76 280 1 289.37 
82293 327.00 942.01 276 1 287.49 
82308 1059.00 947.58 273 1 285.20 
82323 911.00 945.84 270 1 282.76 
82338 878.00 942.61 266 1 280.21 
82353 877.00 939.49 262 1 277.36 
82368 937.00 939.37 258 1 274.29 
82383 1132.00 948.54 255 1 271.03 
82398 772.00 940.13 251 1 267.83 
82413 1235.00 954.17 248 1 264.46 
82428 1065.00 959.45 246 1 261.17 
82443 853.00 954.38 243 1 258.14 
82458 826.00 948.27 240 1 255.11 
82473 981.00 949.83 237 1 252.09 
82488 1095.00 956.74 235 1 249.07 
82503 845.00 951.42 232 1 246.26 
82518 782.00 943.35 228 1 243.40 
82533 828.00 937.86 224 1 240.32 
82548 1126.00 946.82 221 1 237.06 
82563 894.00 944.30 218 1 233.85 
82578 1026.00 948.19 215 1 230.68 
82593 868.00 944.37 212 1 227.54 
82608 893.00 941.93 208 1 224.43 
82623 853.00 937.69 204 1 221.15 
82638 1064.00 943.71 201 1 217.72 
82653 1017.00 947.20 198 1 214.37 
82668 938.00 946.76 195 1 211.10 
82683 1129.00 955.44 192 1 207.88 
82698 968.00 956.04 190 1 204.70 
82713 988.00 957.56 188 1 201.76 
82728 910.00 955.29 185 1 199.01 
82743 1036.00 959.14 183 1 196.21 
82758 871.00 954.94 180 1 193.57 
82773 922.00 953.37 177 1 190.85 
82788 800.00 946.07 174 1 188.08 
82803 983.00 947.83 171 1 185.27 
82818 1032.00 951.84 168 1 182.41 
82833 1154.00 961.46 166 1 179.53 
82848 961.00 961.44 164 1 176.82 
82863 1114.00 968.70 163 1 174.26 
82878 791.00 960.24 161 1 172.01 
82893 775.00 951.42 158 1 169.81 
82908 1085.00 957.78 156 1 167.44 
82923 787.00 949.65 153 1 165.16 
82938 1012.00 952.62 150 1 162.72 
82952 931.00 951.59 147 1 160.18 
82967 893.00 948.80 144 1 157.54 
82982 1129.00 957.38 142 1 154.84 
82997 979.00 958.41 140 1 152.27 
83012 834.00 952.49 137 1 149.81 
83027 725.00 941.65 133 1 147.25 
83042 870.00 938.24 129 1 144.40 
83057 917.00 937.23 125 1 141.32 
83072 1035.00 941.89 121 1 138.06 
83087 1006.00 944.94 118 1 134.65 
83102 911.00 943.32 114 1 131.32 
83117 1069.00 949.31 111 1 127.85 
83133 754.00 940.01 107 1 124.48 
83148 1142.00 949.63 104 1 120.99 
83162 1077.00 955.69 101 1 117.59 
83177 922.00 954.09 98 1 114.27 
83192 1025.00 957.46 96 1 111.02 
83207 995.00 959.25 94 1 108.01 
83222 857.00 954.38 91 1 105.21 
83237 908.00 952.17 88 1 102.37 
83252 1043.00 956.50 86 1 99.49 
83267 873.00 952.52 83 1 96.80 
83282 998.00 954.69 80 1 94.04 
83297 956.00 954.75 77 1 91.23 
83312 959.00 954.95 74 1 88.38 
83327 1011.00 957.62 72 1 85.51 
83342 959.00 957.69 70 1 82.81 
83357 903.00 955.08 67 1 80.24 
83372 970.00 955.79 64 1 77.60 
83387 979.00 956.90 62 1 74.88 
83402 914.00 954.86 59 1 72.30 
83417 990.00 956.53 57 1 69.64 
83432 981.00 957.69 55 1 67.11 
83447 885.00 954.23 52 1 64.69 
83462 991.00 955.98 49 1 62.15 
83477 896.00 953.13 46 1 59.52 
83492 911.00 951.12 43 1 56.82 
83507 915.00 949.40 40 1 54.05 
83522 954.00 949.62 37 1 51.24 
83537 973.00 950.73 34 1 48.39 
83552 986.00 952.41 31 1 45.52 
83567 934.00 951.54 28 1 42.61 
83582 1003.00 953.99 25 1 39.69 
83597 884.00 950.65 22 1 36.75 
83612 996.00 952.81 19 1 33.80 
83627 1000.00 955.06 16 1 30.84 
83642 934.00 954.06 13 1 27.87 
83657 963.00 954.48 10 1 24.90 
found TOS!TTTTTTTTTTTTTTTTTTTTTTTT
83672 886.00 951.22 0 0 21.92 
channel: 88
size: 2
method: 1
Transmission failed or timed out
83735 975.00 952.35 -2 0 17.53 
83750 946.00 952.05 -4 0 13.63 
83765 969.00 952.86 -6 0 10.10 
83780 976.00 953.96 -8 0 6.88 
83795 950.00 953.77 -10 0 3.91 
83810 919.00 952.12 -12 0 1.12 
83825 989.00 953.87 -14 0 -1.50 
83840 946.00 953.50 -16 0 -4.00 
83855 963.00 953.95 -18 0 -6.40 
83870 979.00 955.14 -20 0 -8.72 
83885 966.00 955.66 -22 0 -10.98 
83900 974.00 956.53 -23 0 -13.18 
83915 957.00 956.56 -24 0 -15.14 
83930 913.00 954.48 -26 0 -16.92 
83945 944.00 953.98 -28 0 -18.73 
83960 940.00 953.32 -30 0 -20.59 
83975 931.00 952.25 -32 0 -22.47 
83990 949.00 952.10 -34 0 -24.38 
84005 977.00 953.28 -36 0 -26.30 
84020 961.00 953.65 -38 0 -28.24 
84035 980.00 954.91 -40 0 -30.19 
84050 966.00 955.44 -42 0 -32.15 
84065 982.00 956.70 -43 0 -34.12 
84080 959.00 956.81 -44 0 -35.90 
84095 948.00 956.39 -45 0 -37.52 
84110 906.00 953.99 -47 0 -39.01 
84125 935.00 953.09 -49 0 -40.61 
84140 940.00 952.46 -51 0 -42.29 
84155 939.00 951.82 -53 0 -44.03 
84171 972.00 952.78 -55 0 -45.83 
84186 978.00 953.98 -57 0 -47.66 
84201 980.00 955.22 -59 0 -49.53 
84216 927.00 953.88 -61 0 -51.42 
84231 972.00 954.74 -63 0 -53.34 
84246 918.00 952.99 -65 0 -55.27 
84261 958.00 953.23 -67 0 -57.22 
84276 966.00 953.84 -69 0 -59.17 
84291 980.00 955.08 -71 0 -61.14 
84306 968.00 955.70 -73 0 -63.11 
84321 929.00 954.43 -75 0 -65.09 
84336 931.00 953.31 -77 0 -67.07 
84351 938.00 952.58 -79 0 -69.06 
84366 947.00 952.32 -81 0 -71.05 
84381 948.00 952.11 -83 0 -73.04 
84397 964.00 952.68 -85 0 -75.03 
84412 988.00 954.36 -87 0 -77.02 
84427 940.00 953.68 -89 0 -79.02 
84442 935.00 952.79 -91 0 -81.01 
84457 953.00 952.80 -93 0 -83.01 
84472 961.00 953.19 -95 0 -85.01 
84487 955.00 953.27 -97 0 -87.01 
84502 945.00 952.88 -99 0 -89.01 
84517 943.00 952.41 -101 0 -91.00 
84532 966.00 953.06 -103 0 -93.00 
84547 962.00 953.48 -105 0 -95.00 
84562 943.00 952.98 -107 0 -97.00 
84577 981.00 954.32 -109 0 -99.00 
84592 982.00 955.64 -111 0 -101.00 
84607 963.00 955.99 -113 0 -103.00 
84622 959.00 956.13 -115 0 -105.00 
84637 948.00 955.74 -117 0 -107.00 
84652 962.00 956.04 -119 0 -109.00 
84667 935.00 955.04 -121 0 -111.00 
84682 965.00 955.51 -123 0 -113.00 
84697 954.00 955.44 -125 0 -115.00 
84712 979.00 956.56 -126 0 -117.00 
84727 989.00 958.11 -127 0 -118.80 
84742 906.00 955.63 -129 0 -120.44 
84757 911.00 953.50 -131 0 -122.15 
84772 936.00 952.67 -133 0 -123.92 
84787 938.00 951.97 -135 0 -125.74 
84802 958.00 952.26 -137 0 -127.59 
84817 973.00 953.24 -139 0 -129.47 
84832 913.00 951.33 -141 0 -131.38 
84847 1005.00 953.88 -143 0 -133.30 
84863 904.00 951.51 -145 0 -135.24 
84878 934.00 950.67 -147 0 -137.19 
84893 995.00 952.79 -149 0 -139.15 
84908 952.00 952.75 -151 0 -141.12 
84923 890.00 949.76 -153 0 -143.10 
84938 967.00 950.58 -155 0 -145.08 
84953 724.00 939.79 -158 0 -147.06 
84968 796.00 932.94 -161 0 -149.25 
84983 941.00 933.33 -164 0 -151.60 
84998 866.00 930.12 -168 0 -154.08 
85013 901.00 928.74 -172 0 -156.86 
85028 944.00 929.46 -176 0 -159.89 
85043 939.00 929.92 -180 0 -163.11 
85058 996.00 933.06 -183 0 -166.49 
85073 1005.00 936.49 -186 0 -169.79 
85088 1012.00 940.08 -189 0 -173.03 
85103 783.00 932.60 -193 0 -176.23 
85118 1020.00 936.77 -196 0 -179.58 
85133 856.00 932.92 -200 0 -182.87 
85148 907.00 931.69 -204 0 -186.29 
85163 1031.00 936.41 -207 0 -189.83 
85178 948.00 936.97 -210 0 -193.27 
85193 960.00 938.06 -213 0 -196.61 
85208 943.00 938.30 -216 0 -199.89 
85223 860.00 934.57 -219 0 -203.11 
85238 950.00 935.30 -222 0 -206.29 
85253 1040.00 940.29 -225 0 -209.43 
85268 1061.00 946.04 -227 0 -212.55 
85283 1053.00 951.13 -229 0 -215.44 
85298 889.00 948.17 -231 0 -218.15 
85313 968.00 949.12 -233 0 -220.72 
85328 954.00 949.35 -235 0 -223.18 
85343 924.00 948.14 -237 0 -225.54 
85358 1036.00 952.33 -239 0 -227.83 
85373 1029.00 955.98 -241 0 -230.07 
85388 893.00 952.98 -243 0 -232.25 
85403 975.00 954.03 -245 0 -234.40 
85418 1034.00 957.84 -246 0 -236.52 
85433 951.00 957.51 -247 0 -238.42 
85448 1039.00 961.39 -248 0 -240.13 
85463 824.00 954.85 -250 0 -241.71 
85478 965.00 955.33 -252 0 -243.37 
85493 1039.00 959.32 -253 0 -245.09 
85508 917.00 957.30 -254 0 -246.67 
85523 960.00 957.43 -255 0 -248.14 
85538 976.00 958.31 -256 0 -249.51 
85553 916.00 956.30 -258 0 -250.81 
85568 890.00 953.14 -260 0 -252.25 
85583 1003.00 955.52 -262 0 -253.80 
85598 930.00 954.30 -264 0 -255.44 
85613 1025.00 957.67 -265 0 -257.15 
85628 923.00 956.02 -267 0 -258.72 
85643 956.00 956.02 -269 0 -260.38 
85658 1004.00 958.30 -270 0 -262.10 
85673 861.00 953.67 -272 0 -263.68 
85688 958.00 953.87 -274 0 -265.34 
85703 938.00 953.12 -276 0 -267.08 
85718 1256.00 967.54 -277 0 -268.86 
85733 937.00 966.09 -278 0 -270.49 
85748 960.00 965.80 -279 0 -271.99 
85763 931.00 964.14 -280 0 -273.39 
85778 892.00 960.70 -281 0 -274.71 
85793 969.00 961.10 -282 0 -275.97 
85808 923.00 959.29 -283 0 -277.18 
85823 869.00 954.99 -285 0 -278.34 
85838 982.00 956.27 -287 0 -279.67 
85853 1098.00 963.02 -288 0 -281.14 
85868 881.00 959.12 -289 0 -282.51 
85883 988.00 960.49 -290 0 -283.81 
85898 1043.00 964.42 -291 0 -285.05 
85913 1001.00 966.16 -292 0 -286.24 
85928 934.00 964.63 -293 0 -287.39 
85943 1147.00 973.31 -293 0 -288.51 
85958 1067.00 977.78 -293 0 -289.41 
85973 874.00 972.83 -293 0 -290.13 
85988 1086.00 978.22 -293 0 -290.70 
86003 920.00 975.45 -293 0 -291.16 
86018 919.00 972.76 -293 0 -291.53 
86033 941.00 971.25 -293 0 -291.82 
86048 850.00 965.48 -294 0 -292.06 
86063 988.00 966.55 -295 0 -292.45 
86078 1097.00 972.76 -295 0 -292.96 
86093 931.00 970.77 -295 0 -293.37 
86108 1108.00 977.31 -295 0 -293.69 
86123 1058.00 981.15 -294 0 -293.95 
86138 828.00 973.86 -294 0 -293.96 
86153 1125.00 981.05 -293 0 -293.97 
86168 817.00 973.24 -293 0 -293.78 
86183 1054.00 977.09 -293 0 -293.62 
86198 985.00 977.46 -293 0 -293.50 
86213 945.00 975.92 -293 0 -293.40 
86228 945.00 974.45 -293 0 -293.32 
86243 864.00 969.19 -293 0 -293.25 
86258 918.00 966.75 -294 0 -293.20 
86273 1157.00 975.81 -294 0 -293.36 
86288 1137.00 983.48 -293 0 -293.49 
86303 950.00 981.89 -292 0 -293.39 
86318 937.00 979.75 -292 0 -293.11 
86333 838.00 973.00 -292 0 -292.89 
86348 921.00 970.53 -292 0 -292.71 
86363 955.00 969.79 -292 0 -292.57 
86378 955.00 969.08 -292 0 -292.46 
86393 1142.00 977.32 -292 0 -292.36 
86408 1000.00 978.40 -292 0 -292.29 
86423 1060.00 982.28 -291 0 -292.23 
86438 1078.00 986.84 -290 0 -291.99 
86453 1312.00 1002.32 -288 0 -291.59 
86468 927.00 998.74 -286 0 -290.87 
86483 950.00 996.42 -284 0 -289.90 
86498 988.00 996.02 -282 0 -288.72 
86513 907.00 991.78 -280 0 -287.37 
86528 1033.00 993.74 -278 0 -285.90 
86543 946.00 991.47 -277 0 -284.32 
86558 985.00 991.16 -276 0 -282.86 
86573 1066.00 994.72 -274 0 -281.48 
86588 1051.00 997.40 -272 0 -279.99 
86603 887.00 992.15 -270 0 -278.39 
86618 1047.00 994.76 -268 0 -276.71 
86633 1155.00 1002.39 -266 0 -274.97 
86648 1062.00 1005.23 -263 0 -273.18 
86663 1034.00 1006.60 -260 0 -271.14 
86678 945.00 1003.66 -257 0 -268.91 
86693 888.00 998.16 -255 0 -266.53 
86708 937.00 995.24 -253 0 -264.22 
86723 992.00 995.09 -251 0 -261.98 
86738 1017.00 996.13 -249 0 -259.78 
86753 826.00 988.03 -248 0 -257.63 
86768 1040.00 990.51 -247 0 -255.70 
86783 1064.00 994.01 -245 0 -253.96 
86798 1144.00 1001.15 -243 0 -252.17 
86813 1012.00 1001.66 -241 0 -250.34 
86828 1097.00 1006.20 -238 0 -248.47 
86843 937.00 1002.91 -236 0 -246.37 
86858 1094.00 1007.25 -233 0 -244.30 
86873 965.00 1005.23 -230 0 -242.04 
86888 1005.00 1005.22 -227 0 -239.63 
86903 991.00 1004.55 -224 0 -237.11 
86918 1042.00 1006.33 -221 0 -234.48 
86934 1082.00 1009.93 -218 0 -231.79 
86948 1023.00 1010.56 -215 0 -229.03 
86963 962.00 1008.24 -212 0 -226.22 
86978 1011.00 1008.37 -209 0 -223.38 
86993 1019.00 1008.88 -206 0 -220.50 
87008 1089.00 1012.70 -203 0 -217.60 
87023 993.00 1011.76 -200 0 -214.68 
87038 987.00 1010.58 -197 0 -211.75 
87053 1061.00 1012.98 -194 0 -208.80 
87068 1048.00 1014.65 -190 0 -205.84 
87084 878.00 1008.14 -187 0 -202.67 
87098 1075.00 1011.32 -184 0 -199.54 
87114 1054.00 1013.36 -181 0 -196.43 
87129 998.00 1012.63 -178 0 -193.34 
87143 1105.00 1017.02 -174 0 -190.27 
87158 992.00 1015.83 -170 0 -187.02 
87174 921.00 1011.32 -167 0 -183.62 
87189 927.00 1007.30 -164 0 -180.29 
87204 942.00 1004.19 -161 0 -177.03 
87219 1071.00 1007.37 -158 0 -173.83 
87233 1117.00 1012.59 -155 0 -170.66 
87249 1013.00 1012.61 -152 0 -167.53 
87264 987.00 1011.39 -149 0 -164.42 
87279 1094.00 1015.33 -145 0 -161.34 
87294 998.00 1014.50 -141 0 -158.07 
87309 972.00 1012.48 -138 0 -154.66 
87323 1053.00 1014.41 -134 0 -151.33 
87338 1021.00 1014.72 -130 0 -147.86 
87353 968.00 1012.50 -127 0 -144.29 
87368 1036.00 1013.62 -124 0 -140.83 
87383 1096.00 1017.54 -120 0 -137.46 
87398 899.00 1011.89 -117 0 -133.97 
87413 877.00 1005.47 -114 0 -130.58 
87428 1111.00 1010.50 -111 0 -127.26 
87443 1087.00 1014.14 -108 0 -124.01 
87458 970.00 1012.04 -105 0 -120.81 
87473 1069.00 1014.75 -101 0 -117.65 
87489 840.00 1006.43 -98 0 -114.32 
87504 1010.00 1006.60 -95 0 -111.05 
87518 1035.00 1007.95 -92 0 -107.84 
87533 1109.00 1012.76 -89 0 -104.67 
87548 1013.00 1012.77 -86 0 -101.54 
87564 1035.00 1013.83 -83 0 -98.43 
87579 1073.00 1016.65 -79 0 -95.35 
87594 991.00 1015.43 -75 0 -92.08 
87609 959.00 1012.74 -72 0 -88.66 
87624 549.00 990.66 -71 0 -85.33 
87639 795.00 981.34 -70 0 -82.46 
87654 1289.00 995.99 -68 0 -79.97 
87669 965.00 994.52 -66 0 -77.58 
87684 1126.00 1000.78 -64 0 -75.26 
87699 946.00 998.17 -62 0 -73.01 
87714 996.00 998.07 -60 0 -70.81 
87728 1059.00 1000.97 -58 0 -68.65 
87743 1019.00 1001.83 -56 0 -66.52 
87758 1106.00 1006.79 -53 0 -64.41 
87773 1060.00 1009.32 -50 0 -62.13 
87788 996.00 1008.69 -47 0 -59.70 
87803 949.00 1005.84 -44 0 -57.16 
87818 902.00 1000.90 -42 0 -54.53 
87833 1158.00 1008.38 -39 0 -52.02 
87848 1179.00 1016.50 -35 0 -49.42 
87863 1021.00 1016.72 -31 0 -46.54 
87878 1051.00 1018.35 -27 0 -43.43 
87894 1035.00 1019.14 -23 0 -40.14 
87909 989.00 1017.71 -19 0 -36.71 
87924 1087.00 1021.01 -15 0 -33.17 
87939 1042.00 1022.01 -11 0 -29.54 
found BOS! BBBBBBBBBBBBBBBBBBBBBBBBB
87954 1022.00 1022.01 0 1 -25.83 
87969 1034.00 1022.58 3 1 -20.66 
87984 1017.00 1022.31 6 1 -15.93 
87999 1058.00 1024.01 9 1 -11.54 
88013 1057.00 1025.58 13 1 -7.44 
88028 1043.00 1026.41 17 1 -3.35 
88043 1082.00 1029.06 21 1 0.72 
88058 1064.00 1030.72 25 1 4.78 
88073 1122.00 1035.07 29 1 8.82 
88088 926.00 1029.88 33 1 12.86 
88103 1008.00 1028.83 37 1 16.89 
88118 1113.00 1032.84 41 1 20.91 
88133 1033.00 1032.85 45 1 24.93 
88148 1049.00 1033.62 49 1 28.94 
88163 1057.00 1034.73 53 1 32.95 
88178 998.00 1032.98 57 1 36.96 
88193 1038.00 1033.22 61 1 40.97 
88208 981.00 1030.74 65 1 44.98 
88223 1059.00 1032.08 69 1 48.98 
88238 1015.00 1031.27 73 1 52.98 
88253 955.00 1027.64 77 1 56.99 
88268 1072.00 1029.75 81 1 60.99 
88283 1009.00 1028.76 85 1 64.99 
88298 980.00 1026.44 89 1 68.99 
88313 1024.00 1026.32 93 1 72.99 
